Date and Time:                Sun Nov 2 14:17:43.175 2025
Software Version:             4.30.30000.0
Temperature (C):              -90
Model:                        DU971P_UVB
Data Type:                    Counts
Acquisition Mode:             Single Scan
Trigger Mode:                 Internal
Exposure Time (secs):         30
Readout Mode:                 Full Vertical Binning
Horizontal binning:           2
Extended Dynamic Range:       off
Horizontally flipped:         false
Vertical Shift Speed (usecs): 9.68
Pixel Readout Rate (MHz):     3
Baseline Clamp:               ON
Clock Amplitude:              Normal
Output Amplifier:             Conventional
Serial Number:                20367
Pre-Amplifier Gain:           4x
Spurious Noise Filter Mode:   No Filter
Photon counted:               false
Data Averaging Filter Mode:   No Filter
SR193i:
Serial Number:                SR-2646
Wavelength (nm):              690
Grating Groove Density (l/mm):300
Grating Blaze:                500nm
Input Side Slit Width (um):   1000



478.32681	248
478.84332	329
479.35983	301
479.87631	311
480.39282	302
480.9093	299
481.42575	300
481.94223	330
482.45868	304
482.97513	313
483.49158	304
484.00803	330
484.52444	307
485.04086	311
485.55728	311
486.07367	317
486.59006	315
487.10645	319
487.62283	317
488.13919	299
488.65555	319
489.17191	330
489.68826	317
490.20459	301
490.72092	309
491.23724	320
491.75354	319
492.26984	310
492.78613	297
493.30243	337
493.8187	338
494.33496	327
494.85123	316
495.36746	330
495.8837	303
496.39993	311
496.91617	321
497.43237	314
497.94858	303
498.46478	327
498.98096	308
499.49713	325
500.01331	298
500.52945	303
501.04562	337
501.56174	297
502.07788	329
502.59399	320
503.11011	331
503.62622	329
504.1423	311
504.65839	309
505.17447	317
505.69052	326
506.20657	319
506.72263	317
507.23865	323
507.75467	300
508.27069	321
508.78668	319
509.30267	317
509.81866	321
510.33463	319
510.85059	308
511.36655	331
511.88248	307
512.39844	328
512.91437	306
513.43024	308
513.94617	311
514.46204	311
514.97791	314
515.49377	304
516.00964	305
516.52551	309
517.04132	325
517.55719	299
518.073	323
518.58881	299
519.10461	317
519.62036	312
520.13617	325
520.65192	304
521.16766	320
521.68341	308
522.1991	325
522.71484	343
523.23053	307
523.74622	297
524.2619	314
524.77759	306
525.29327	325
525.8089	312
526.32452	306
526.84015	300
527.35577	312
527.8714	332
528.38696	297
528.90259	298
529.41815	320
529.93372	298
530.44922	311
530.96478	301
531.48029	307
531.99579	332
532.51129	306
533.02679	323
533.5423	329
534.05774	307
534.57318	321
535.08862	308
535.60406	301
536.11945	307
536.63489	296
537.15027	293
537.66565	338
538.18097	326
538.69635	298
539.21167	291
539.72699	302
540.24231	303
540.75763	321
541.27289	313
541.78821	297
542.30347	329
542.81873	330
543.33392	307
543.84918	341
544.36438	314
544.87958	304
545.39478	314
545.90991	310
546.42511	302
546.94025	935
547.45538	5895
547.97052	5345
548.4856	5174
549.00073	727
549.51581	304
550.03088	284
550.5459	330
551.06097	324
551.57599	301
552.091	315
552.60602	316
553.12097	330
553.63593	323
554.15094	329
554.66583	323
555.18079	310
555.69568	318
556.21063	297
556.72552	324
557.24036	332
557.75525	318
558.27008	303
558.78491	327
559.29974	331
559.81458	300
560.32935	308
560.84412	321
561.35889	340
561.87366	322
562.38837	317
562.90308	295
563.41779	325
563.9325	315
564.44714	318
564.96179	300
565.47644	313
565.99109	302
566.50574	304
567.02032	300
567.53491	327
568.0495	304
568.56403	299
569.07861	310
569.59314	317
570.1076	311
570.62213	309
571.1366	308
571.65106	324
572.16553	304
572.67999	333
573.1944	309
573.7088	320
574.22321	319
574.73755	310
575.25195	322
575.7663	316
576.28058	328
576.79492	309
577.3092	303
577.82349	320
578.33777	311
578.85205	323
579.36627	306
579.88049	313
580.39471	326
580.90887	334
581.42303	329
581.93719	311
582.45135	311
582.96545	299
583.47955	313
583.99365	316
584.50775	308
585.02179	332
585.53583	313
586.04987	305
586.5639	334
587.07788	307
587.59186	311
588.10583	319
588.61975	297
589.13373	298
589.64758	319
590.1615	300
590.67542	314
591.18927	300
591.70306	326
592.21692	319
592.73071	306
593.24451	327
593.7583	328
594.27209	315
594.78583	322
595.29956	309
595.81323	321
596.32697	299
596.84064	332
597.35425	307
597.86792	299
598.38153	317
598.89514	297
599.40875	323
599.9223	322
600.43585	291
600.9494	314
601.46289	294
601.97638	301
602.48987	317
603.00336	292
603.51678	307
604.03021	325
604.54364	313
605.05701	305
605.57043	306
606.08374	303
606.59711	328
607.11041	314
607.62372	324
608.13702	303
608.65027	316
609.16351	322
609.67676	322
610.19	318
610.70319	320
611.21637	309
611.72949	301
612.24268	329
612.75574	315
613.26886	306
613.78192	308
614.29504	295
614.80804	305
615.32111	320
615.83411	310
616.34711	311
616.86005	316
617.37299	303
617.88593	305
618.39886	310
618.91174	304
619.42462	322
619.9375	313
620.45032	312
620.96313	321
621.47595	301
621.98871	328
622.50146	298
623.01422	317
623.52692	301
624.03967	316
624.55231	324
625.065	304
625.57764	310
626.09027	316
626.60284	301
627.11542	312
627.62799	316
628.14056	329
628.65308	300
629.16559	310
629.6781	293
630.19055	306
630.703	309
631.21539	305
631.72784	307
632.24017	297
632.75256	318
633.26489	312
633.77722	299
634.28955	327
634.80182	318
635.31409	316
635.82635	323
636.33856	299
636.85077	304
637.36292	302
637.87512	305
638.38721	331
638.89935	315
639.41144	310
639.92352	316
640.43561	307
640.94763	332
641.45966	319
641.97162	304
642.48358	326
642.99554	303
643.50751	326
644.01941	321
644.53131	317
645.04315	306
645.55499	314
646.06683	301
646.57861	316
647.09045	325
647.60217	325
648.11395	306
648.62567	322
649.13733	332
649.64905	314
650.16064	319
650.6723	342
651.1839	331
651.6955	317
652.20709	301
652.71863	312
653.23016	319
653.74164	301
654.25311	311
654.76459	312
655.276	318
655.78741	301
656.29883	306
656.81018	328
657.32153	310
657.83289	322
658.34418	318
658.85547	308
659.3667	304
659.87793	320
660.38916	301
660.90033	287
661.4115	318
661.92267	302
662.43378	311
662.94489	300
663.45593	297
663.96698	315
664.47803	306
664.98907	324
665.50006	314
666.01099	311
666.52191	313
667.03284	295
667.54376	313
668.05463	306
668.56549	315
669.07629	322
669.5871	318
670.0979	303
670.60864	333
671.11938	285
671.63007	314
672.14075	327
672.65143	279
673.16205	303
673.67267	301
674.18329	307
674.69385	296
675.20435	304
675.7149	305
676.2254	309
676.73584	317
677.24628	290
677.75671	298
678.26715	313
678.77753	339
679.28784	330
679.79822	295
680.30847	320
680.81879	318
681.32904	311
681.83923	312
682.34949	310
682.85968	311
683.36981	306
683.87994	328
684.39008	322
684.90015	299
685.41022	311
685.92023	308
686.43024	311
686.94025	313
687.4502	299
687.96014	315
688.47003	321
688.97992	304
689.48981	329
689.99963	307
690.50946	303
691.01923	298
691.52899	321
692.03876	292
692.54846	319
693.05817	298
693.56781	333
694.07745	304
694.58704	306
695.09662	315
695.6062	292
696.11572	300
696.62524	310
697.1347	302
697.64417	302
698.15363	298
698.66302	317
699.17242	312
699.68176	332
700.1911	302
700.70044	313
701.20972	318
701.71893	315
702.22815	298
702.73737	320
703.24652	320
703.75568	327
704.26483	328
704.77393	310
705.28302	292
705.79205	319
706.30103	316
706.81006	316
707.31903	305
707.82794	314
708.33685	317
708.84576	327
709.35461	305
709.86346	327
710.37225	318
710.88104	315
711.38977	316
711.8985	326
712.40723	339
712.91589	328
713.42456	317
713.93317	318
714.44177	326
714.95032	321
715.45886	324
715.96735	292
716.47583	313
716.98431	312
717.49274	308
718.00116	306
718.50952	312
719.01788	308
719.52618	310
720.03448	289
720.54272	314
721.05096	306
721.5592	295
722.06738	312
722.57556	333
723.08368	325
723.59174	313
724.09985	321
724.60791	298
725.11591	297
725.6239	303
726.13184	293
726.63977	332
727.14771	300
727.65558	309
728.16339	308
728.67126	313
729.17902	312
729.68683	309
730.19452	322
730.70227	310
731.2099	320
731.71759	315
732.22522	301
732.73279	318
733.24036	315
733.74792	323
734.25543	308
734.76288	327
735.27032	315
735.77777	306
736.28516	317
736.79254	306
737.29987	298
737.80719	311
738.31445	339
738.82172	296
739.32892	314
739.83612	337
740.34326	306
740.8504	312
741.35748	301
741.86456	318
742.37164	345
742.87866	300
743.38562	317
743.89258	319
744.39954	323
744.90643	299
745.41327	314
745.9201	296
746.42694	293
746.93372	308
747.44049	312
747.9472	304
748.45386	305
748.96057	334
749.46716	308
749.97375	315
750.48035	308
750.98688	282
751.49341	326
751.99988	298
752.50635	332
753.01276	330
753.51917	302
754.02551	325
754.53186	296
755.03815	311
755.54443	311
756.05066	329
756.55688	309
757.06305	308
757.56921	327
758.07532	311
758.58142	300
759.08746	316
759.59351	312
760.09949	322
760.60547	317
761.11139	318
761.61725	305
762.12317	323
762.62897	307
763.13483	313
763.64056	307
764.1463	319
764.65204	309
765.15771	319
765.66339	312
766.16901	290
766.67462	320
767.18018	295
767.68567	319
768.19116	315
768.69666	312
769.20209	316
769.70746	313
770.21283	322
770.7182	301
771.22351	318
771.72876	328
772.23401	296
772.73926	313
773.24445	298
773.74957	300
774.2547	305
774.75977	315
775.26483	323
775.76984	303
776.27484	301
776.77979	316
777.28473	323
777.78961	304
778.29449	299
778.79932	282
779.30408	301
779.80884	309
780.3136	306
780.8183	326
781.32294	327
781.82758	305
782.33215	336
782.83673	318
783.34131	283
783.84576	305
784.35028	313
784.85468	315
785.35907	315
785.86346	316
786.3678	322
786.87213	315
787.3764	308
787.88062	315
788.38483	306
788.88898	326
789.39313	297
789.89722	308
790.40131	324
790.90533	303
791.40936	341
791.91333	312
792.4173	321
792.9212	321
793.42505	327
793.92889	306
794.43268	292
794.93646	300
795.44019	308
795.94391	300
796.44757	302
796.95123	329
797.45483	310
797.95837	322
798.46191	294
798.96539	334
799.46887	305
799.97235	325
800.47571	310
800.97906	316
801.48242	301
801.98572	314
802.48895	337
802.99219	325
803.49536	320
803.99854	307
804.50165	330
805.00476	311
805.50781	320
806.01086	316
806.51379	313
807.01678	309
807.51971	318
808.02258	320
808.52539	331
809.02826	320
809.53101	308
810.03375	321
810.53644	309
811.03912	303
811.54175	320
812.04437	347
812.54694	286
813.04944	318
813.55194	330
814.05444	315
814.55682	314
815.05927	297
815.56158	307
816.0639	329
816.56622	308
817.06842	313
817.57068	297
818.07281	327
818.57495	318
819.07709	299
819.57916	320
820.08118	321
820.58319	295
821.08514	335
821.5871	322
822.08899	328
822.59082	308
823.09265	305
823.59442	315
824.09619	298
824.5979	325
825.09955	314
825.6012	315
826.10278	324
826.60437	322
827.1059	331
827.60736	312
828.10883	304
828.61023	303
829.11163	313
829.61298	315
830.11432	327
830.61554	319
831.11682	300
831.61798	304
832.11914	313
832.6203	320
833.1214	317
833.62244	308
834.12347	304
834.62445	296
835.12537	289
835.62628	309
836.12714	313
836.62799	308
837.12878	336
837.62952	318
838.13025	312
838.63092	306
839.13153	325
839.63214	299
840.13275	319
840.63324	337
841.13373	307
841.63422	308
842.13464	326
842.63501	315
843.13538	315
843.63568	319
844.13593	320
844.63617	310
845.13635	316
845.63647	295
846.1366	326
846.63672	311
847.13672	322
847.63672	318
848.13672	315
848.6366	321
849.13647	323
849.63635	296
850.13617	311
850.63593	322
851.13568	336
851.63538	311
852.13501	318
852.63464	307
853.13422	330
853.63373	313
854.13324	315
854.63275	328
855.13214	309
855.63153	318
856.13086	305
856.63019	313
857.12946	321
857.62866	303
858.12787	327
858.62701	325
859.12616	301
859.62524	315
860.12427	314
860.62323	317
861.12219	301
861.62109	316
862.12	306
862.61884	305
863.11761	303
863.61639	314
864.11511	309
864.61377	307
865.11243	320
865.61102	329
866.10962	337
866.60809	327
867.10663	294
867.60504	302
868.10345	308
868.60181	304
869.10016	312
869.59839	330
870.09668	324
870.59485	310
871.09302	304
871.59113	315
872.08923	315
872.58728	304
873.08527	299
873.58325	322
874.08118	302
874.57904	334
875.0769	320
875.57465	314
876.07245	304
876.57013	308
877.06781	291
877.56549	320
878.06305	311
878.56061	311
879.05817	302
879.5556	336
880.05304	318
880.55042	316
881.04779	316
881.5451	318
882.04236	304
882.53961	328
883.0368	318
883.53394	324
884.03107	303
884.52808	325
885.02515	313
