Date and Time:                Fri Oct 17 08:53:05.429 2025
Software Version:             4.30.30000.0
Temperature (C):              -90
Model:                        DU971P_UVB
Data Type:                    Counts
Acquisition Mode:             Single Scan
Trigger Mode:                 Internal
Exposure Time (secs):         30
Readout Mode:                 Full Vertical Binning
Horizontal binning:           2
Extended Dynamic Range:       off
Horizontally flipped:         false
Vertical Shift Speed (usecs): 9.68
Pixel Readout Rate (MHz):     3
Baseline Clamp:               ON
Clock Amplitude:              Normal
Output Amplifier:             Conventional
Serial Number:                20367
Pre-Amplifier Gain:           4x
Spurious Noise Filter Mode:   No Filter
Photon counted:               false
Data Averaging Filter Mode:   No Filter
SR193i:
Serial Number:                SR-2646
Wavelength (nm):              690
Grating Groove Density (l/mm):300
Grating Blaze:                500nm
Input Side Slit Width (um):   1000



478.32681	298
478.84332	365
479.35983	411
479.87631	371
480.39282	355
480.9093	362
481.42575	381
481.94223	367
482.45868	357
482.97513	372
483.49158	365
484.00803	403
484.52444	392
485.04086	395
485.55728	408
486.07367	438
486.59006	438
487.10645	439
487.62283	490
488.13919	472
488.65555	460
489.17191	466
489.68826	505
490.20459	497
490.72092	497
491.23724	516
491.75354	508
492.26984	541
492.78613	556
493.30243	564
493.8187	603
494.33496	562
494.85123	533
495.36746	586
495.8837	617
496.39993	560
496.91617	593
497.43237	619
497.94858	657
498.46478	656
498.98096	636
499.49713	651
500.01331	627
500.52945	670
501.04562	632
501.56174	644
502.07788	620
502.59399	657
503.11011	641
503.62622	642
504.1423	607
504.65839	704
505.17447	639
505.69052	694
506.20657	641
506.72263	621
507.23865	667
507.75467	616
508.27069	688
508.78668	653
509.30267	650
509.81866	600
510.33463	574
510.85059	585
511.36655	617
511.88248	627
512.39844	651
512.91437	590
513.43024	604
513.94617	589
514.46204	626
514.97791	620
515.49377	645
516.00964	596
516.52551	608
517.04132	606
517.55719	621
518.073	624
518.58881	616
519.10461	668
519.62036	620
520.13617	633
520.65192	625
521.16766	612
521.68341	625
522.1991	585
522.71484	601
523.23053	588
523.74622	560
524.2619	607
524.77759	576
525.29327	546
525.8089	599
526.32452	597
526.84015	581
527.35577	592
527.8714	584
528.38696	577
528.90259	631
529.41815	611
529.93372	571
530.44922	603
530.96478	607
531.48029	576
531.99579	576
532.51129	647
533.02679	579
533.5423	630
534.05774	585
534.57318	600
535.08862	549
535.60406	609
536.11945	600
536.63489	559
537.15027	586
537.66565	634
538.18097	588
538.69635	596
539.21167	565
539.72699	597
540.24231	590
540.75763	572
541.27289	600
541.78821	627
542.30347	624
542.81873	600
543.33392	588
543.84918	624
544.36438	671
544.87958	666
545.39478	607
545.90991	649
546.42511	628
546.94025	601
547.45538	603
547.97052	653
548.4856	647
549.00073	644
549.51581	668
550.03088	708
550.5459	674
551.06097	692
551.57599	689
552.091	666
552.60602	715
553.12097	694
553.63593	685
554.15094	708
554.66583	712
555.18079	687
555.69568	745
556.21063	752
556.72552	742
557.24036	765
557.75525	785
558.27008	780
558.78491	769
559.29974	824
559.81458	834
560.32935	793
560.84412	774
561.35889	827
561.87366	856
562.38837	908
562.90308	873
563.41779	924
563.9325	896
564.44714	905
564.96179	993
565.47644	963
565.99109	945
566.50574	917
567.02032	966
567.53491	989
568.0495	984
568.56403	999
569.07861	1047
569.59314	925
570.1076	987
570.62213	1073
571.1366	1110
571.65106	1123
572.16553	1149
572.67999	1147
573.1944	1150
573.7088	1121
574.22321	1175
574.73755	1185
575.25195	1191
575.7663	1211
576.28058	1239
576.79492	1254
577.3092	1282
577.82349	1186
578.33777	1281
578.85205	1308
579.36627	1256
579.88049	1288
580.39471	1329
580.90887	1369
581.42303	1385
581.93719	1429
582.45135	1297
582.96545	1356
583.47955	1413
583.99365	1483
584.50775	1510
585.02179	1472
585.53583	1412
586.04987	1476
586.5639	1471
587.07788	1570
587.59186	1494
588.10583	1531
588.61975	1576
589.13373	1545
589.64758	1594
590.1615	1617
590.67542	1634
591.18927	1607
591.70306	1560
592.21692	1606
592.73071	1638
593.24451	1610
593.7583	1599
594.27209	1680
594.78583	1568
595.29956	1647
595.81323	1614
596.32697	1663
596.84064	1660
597.35425	1604
597.86792	1693
598.38153	1643
598.89514	1605
599.40875	1663
599.9223	1697
600.43585	1615
600.9494	1662
601.46289	1699
601.97638	1718
602.48987	1636
603.00336	1792
603.51678	1764
604.03021	1714
604.54364	1717
605.05701	1693
605.57043	1667
606.08374	1740
606.59711	1640
607.11041	1704
607.62372	1736
608.13702	1625
608.65027	1679
609.16351	1735
609.67676	1640
610.19	1695
610.70319	1731
611.21637	1717
611.72949	1713
612.24268	1660
612.75574	1633
613.26886	1686
613.78192	1663
614.29504	1724
614.80804	1753
615.32111	1657
615.83411	1716
616.34711	1600
616.86005	1639
617.37299	1614
617.88593	1693
618.39886	1576
618.91174	1574
619.42462	1572
619.9375	1571
620.45032	1595
620.96313	1556
621.47595	1521
621.98871	1629
622.50146	1575
623.01422	1535
623.52692	1626
624.03967	1548
624.55231	1561
625.065	1512
625.57764	1542
626.09027	1531
626.60284	1508
627.11542	1443
627.62799	1498
628.14056	1569
628.65308	1465
629.16559	1453
629.6781	1492
630.19055	1512
630.703	1527
631.21539	1489
631.72784	1403
632.24017	1456
632.75256	1500
633.26489	1462
633.77722	1428
634.28955	1414
634.80182	1414
635.31409	1400
635.82635	1404
636.33856	1413
636.85077	1372
637.36292	1423
637.87512	1404
638.38721	1335
638.89935	1353
639.41144	1311
639.92352	1304
640.43561	1327
640.94763	1287
641.45966	1292
641.97162	1344
642.48358	1349
642.99554	1317
643.50751	1270
644.01941	1294
644.53131	1232
645.04315	1298
645.55499	1252
646.06683	1261
646.57861	1209
647.09045	1228
647.60217	1230
648.11395	1195
648.62567	1215
649.13733	1160
649.64905	1214
650.16064	1213
650.6723	1173
651.1839	1154
651.6955	1194
652.20709	1225
652.71863	1132
653.23016	1120
653.74164	1176
654.25311	1126
654.76459	1099
655.276	1175
655.78741	1107
656.29883	1159
656.81018	1086
657.32153	1076
657.83289	1073
658.34418	1088
658.85547	1125
659.3667	1049
659.87793	1061
660.38916	1051
660.90033	1065
661.4115	1048
661.92267	1089
662.43378	1031
662.94489	1020
663.45593	978
663.96698	1008
664.47803	1007
664.98907	1034
665.50006	992
666.01099	942
666.52191	945
667.03284	981
667.54376	967
668.05463	983
668.56549	957
669.07629	978
669.5871	920
670.0979	943
670.60864	891
671.11938	848
671.63007	938
672.14075	938
672.65143	899
673.16205	917
673.67267	912
674.18329	895
674.69385	877
675.20435	874
675.7149	863
676.2254	817
676.73584	900
677.24628	857
677.75671	866
678.26715	852
678.77753	844
679.28784	861
679.79822	873
680.30847	840
680.81879	839
681.32904	830
681.83923	851
682.34949	814
682.85968	782
683.36981	849
683.87994	842
684.39008	809
684.90015	795
685.41022	786
685.92023	748
686.43024	804
686.94025	807
687.4502	757
687.96014	786
688.47003	806
688.97992	750
689.48981	699
689.99963	768
690.50946	762
691.01923	713
691.52899	708
692.03876	696
692.54846	725
693.05817	729
693.56781	737
694.07745	722
694.58704	690
695.09662	726
695.6062	666
696.11572	710
696.62524	668
697.1347	715
697.64417	723
698.15363	2128
698.66302	764
699.17242	689
699.68176	688
700.1911	673
700.70044	686
701.20972	669
701.71893	658
702.22815	646
702.73737	680
703.24652	656
703.75568	649
704.26483	638
704.77393	672
705.28302	630
705.79205	639
706.30103	641
706.81006	621
707.31903	607
707.82794	628
708.33685	671
708.84576	609
709.35461	598
709.86346	598
710.37225	631
710.88104	609
711.38977	611
711.8985	610
712.40723	569
712.91589	594
713.42456	617
713.93317	602
714.44177	537
714.95032	587
715.45886	574
715.96735	553
716.47583	583
716.98431	575
717.49274	555
718.00116	540
718.50952	576
719.01788	562
719.52618	570
720.03448	568
720.54272	546
721.05096	584
721.5592	532
722.06738	564
722.57556	514
723.08368	567
723.59174	582
724.09985	529
724.60791	540
725.11591	539
725.6239	538
726.13184	579
726.63977	557
727.14771	551
727.65558	522
728.16339	578
728.67126	563
729.17902	542
729.68683	508
730.19452	462
730.70227	491
731.2099	543
731.71759	511
732.22522	549
732.73279	535
733.24036	532
733.74792	497
734.25543	527
734.76288	513
735.27032	523
735.77777	513
736.28516	522
736.79254	513
737.29987	484
737.80719	559
738.31445	487
738.82172	499
739.32892	462
739.83612	511
740.34326	500
740.8504	491
741.35748	480
741.86456	497
742.37164	508
742.87866	445
743.38562	495
743.89258	475
744.39954	464
744.90643	505
745.41327	497
745.9201	457
746.42694	473
746.93372	448
747.44049	472
747.9472	480
748.45386	482
748.96057	477
749.46716	485
749.97375	433
750.48035	465
750.98688	432
751.49341	483
751.99988	517
752.50635	464
753.01276	478
753.51917	456
754.02551	502
754.53186	445
755.03815	446
755.54443	444
756.05066	444
756.55688	445
757.06305	461
757.56921	432
758.07532	456
758.58142	420
759.08746	445
759.59351	451
760.09949	426
760.60547	443
761.11139	425
761.61725	454
762.12317	454
762.62897	439
763.13483	466
763.64056	456
764.1463	410
764.65204	446
765.15771	430
765.66339	431
766.16901	418
766.67462	452
767.18018	402
767.68567	398
768.19116	424
768.69666	455
769.20209	418
769.70746	395
770.21283	434
770.7182	420
771.22351	413
771.72876	401
772.23401	409
772.73926	389
773.24445	442
773.74957	420
774.2547	389
774.75977	403
775.26483	395
775.76984	402
776.27484	385
776.77979	416
777.28473	420
777.78961	389
778.29449	429
778.79932	388
779.30408	397
779.80884	413
780.3136	399
780.8183	410
781.32294	390
781.82758	374
782.33215	404
782.83673	378
783.34131	409
783.84576	398
784.35028	380
784.85468	395
785.35907	380
785.86346	377
786.3678	390
786.87213	381
787.3764	383
787.88062	359
788.38483	386
788.88898	391
789.39313	407
789.89722	372
790.40131	383
790.90533	384
791.40936	403
791.91333	406
792.4173	374
792.9212	405
793.42505	377
793.92889	384
794.43268	381
794.93646	421
795.44019	383
795.94391	377
796.44757	407
796.95123	373
797.45483	370
797.95837	382
798.46191	380
798.96539	363
799.46887	331
799.97235	352
800.47571	357
800.97906	360
801.48242	368
801.98572	397
802.48895	389
802.99219	359
803.49536	357
803.99854	362
804.50165	371
805.00476	348
805.50781	361
806.01086	341
806.51379	382
807.01678	367
807.51971	356
808.02258	365
808.52539	380
809.02826	378
809.53101	358
810.03375	370
810.53644	370
811.03912	357
811.54175	370
812.04437	346
812.54694	344
813.04944	353
813.55194	388
814.05444	352
814.55682	364
815.05927	355
815.56158	357
816.0639	362
816.56622	395
817.06842	357
817.57068	358
818.07281	359
818.57495	343
819.07709	388
819.57916	366
820.08118	368
820.58319	357
821.08514	391
821.5871	378
822.08899	356
822.59082	365
823.09265	343
823.59442	372
824.09619	355
824.5979	345
825.09955	335
825.6012	372
826.10278	361
826.60437	377
827.1059	371
827.60736	352
828.10883	336
828.61023	347
829.11163	367
829.61298	369
830.11432	365
830.61554	334
831.11682	335
831.61798	364
832.11914	333
832.6203	371
833.1214	374
833.62244	345
834.12347	355
834.62445	367
835.12537	351
835.62628	359
836.12714	357
836.62799	353
837.12878	373
837.62952	328
838.13025	356
838.63092	385
839.13153	352
839.63214	348
840.13275	359
840.63324	362
841.13373	343
841.63422	368
842.13464	369
842.63501	340
843.13538	363
843.63568	351
844.13593	356
844.63617	351
845.13635	337
845.63647	351
846.1366	344
846.63672	371
847.13672	355
847.63672	370
848.13672	339
848.6366	328
849.13647	323
849.63635	363
850.13617	360
850.63593	374
851.13568	343
851.63538	339
852.13501	346
852.63464	356
853.13422	339
853.63373	357
854.13324	373
854.63275	351
855.13214	356
855.63153	357
856.13086	337
856.63019	347
857.12946	341
857.62866	349
858.12787	361
858.62701	393
859.12616	356
859.62524	361
860.12427	369
860.62323	356
861.12219	391
861.62109	347
862.12	353
862.61884	349
863.11761	354
863.61639	339
864.11511	352
864.61377	363
865.11243	365
865.61102	358
866.10962	338
866.60809	356
867.10663	384
867.60504	339
868.10345	355
868.60181	370
869.10016	360
869.59839	370
870.09668	443
870.59485	526
871.09302	647
871.59113	654
872.08923	801
872.58728	888
873.08527	872
873.58325	959
874.08118	930
874.57904	895
875.0769	957
875.57465	891
876.07245	978
876.57013	920
877.06781	978
877.56549	935
878.06305	918
878.56061	917
879.05817	962
879.5556	993
880.05304	978
880.55042	904
881.04779	1025
881.5451	988
882.04236	1028
882.53961	955
883.0368	982
883.53394	1013
884.03107	1034
884.52808	940
885.02515	942
