Date and Time:                Fri Oct 17 06:47:24.986 2025
Software Version:             4.30.30000.0
Temperature (C):              -90
Model:                        DU971P_UVB
Data Type:                    Counts
Acquisition Mode:             Single Scan
Trigger Mode:                 Internal
Exposure Time (secs):         0.5
Readout Mode:                 Full Vertical Binning
Horizontal binning:           2
Extended Dynamic Range:       off
Horizontally flipped:         false
Vertical Shift Speed (usecs): 9.68
Pixel Readout Rate (MHz):     3
Baseline Clamp:               ON
Clock Amplitude:              Normal
Output Amplifier:             Conventional
Serial Number:                20367
Pre-Amplifier Gain:           4x
Spurious Noise Filter Mode:   No Filter
Photon counted:               false
Data Averaging Filter Mode:   No Filter
SR193i:
Serial Number:                SR-2646
Wavelength (nm):              690
Grating Groove Density (l/mm):300
Grating Blaze:                500nm
Input Side Slit Width (um):   1000



478.32681	284
478.84332	340
479.35983	327
479.87631	338
480.39282	313
480.9093	320
481.42575	332
481.94223	321
482.45868	337
482.97513	342
483.49158	336
484.00803	371
484.52444	393
485.04086	432
485.55728	521
486.07367	499
486.59006	582
487.10645	610
487.62283	664
488.13919	730
488.65555	768
489.17191	765
489.68826	868
490.20459	872
490.72092	901
491.23724	1009
491.75354	1066
492.26984	1102
492.78613	1114
493.30243	1191
493.8187	1250
494.33496	1291
494.85123	1296
495.36746	1330
495.8837	1525
496.39993	1533
496.91617	1555
497.43237	1711
497.94858	1760
498.46478	1837
498.98096	1898
499.49713	1943
500.01331	2063
500.52945	2259
501.04562	2406
501.56174	2545
502.07788	2916
502.59399	3017
503.11011	3247
503.62622	3542
504.1423	4014
504.65839	4330
505.17447	4951
505.69052	5398
506.20657	5936
506.72263	6668
507.23865	7496
507.75467	8274
508.27069	9065
508.78668	10212
509.30267	11038
509.81866	12139
510.33463	13467
510.85059	14357
511.36655	15289
511.88248	15883
512.39844	17060
512.91437	17284
513.43024	18032
513.94617	18332
514.46204	19206
514.97791	19300
515.49377	19170
516.00964	19399
516.52551	19208
517.04132	19273
517.55719	19189
518.073	18910
518.58881	18649
519.10461	18059
519.62036	17664
520.13617	17110
520.65192	16490
521.16766	15975
521.68341	15062
522.1991	14385
522.71484	13642
523.23053	12817
523.74622	11974
524.2619	11051
524.77759	9922
525.29327	8901
525.8089	7918
526.32452	6983
526.84015	6198
527.35577	5493
527.8714	4901
528.38696	4248
528.90259	3893
529.41815	3350
529.93372	3025
530.44922	2844
530.96478	2693
531.48029	2524
531.99579	2323
532.51129	2345
533.02679	2246
533.5423	2272
534.05774	2182
534.57318	2216
535.08862	2173
535.60406	2112
536.11945	2153
536.63489	2029
537.15027	2033
537.66565	1955
538.18097	1997
538.69635	1894
539.21167	1904
539.72699	1811
540.24231	1947
540.75763	1851
541.27289	1776
541.78821	1739
542.30347	1651
542.81873	1561
543.33392	1610
543.84918	1632
544.36438	1602
544.87958	1582
545.39478	1417
545.90991	1581
546.42511	1474
546.94025	1458
547.45538	1464
547.97052	1461
548.4856	1388
549.00073	1340
549.51581	1356
550.03088	1360
550.5459	1337
551.06097	1335
551.57599	1353
552.091	1271
552.60602	1287
553.12097	1211
553.63593	1282
554.15094	1198
554.66583	1183
555.18079	1199
555.69568	1235
556.21063	1167
556.72552	1221
557.24036	1156
557.75525	1207
558.27008	1181
558.78491	1140
559.29974	1224
559.81458	1124
560.32935	1207
560.84412	1137
561.35889	1187
561.87366	1133
562.38837	1114
562.90308	1143
563.41779	1157
563.9325	1077
564.44714	1165
564.96179	1116
565.47644	1129
565.99109	1054
566.50574	1131
567.02032	1050
567.53491	1047
568.0495	1023
568.56403	1042
569.07861	1050
569.59314	960
570.1076	1009
570.62213	1082
571.1366	977
571.65106	993
572.16553	1004
572.67999	1008
573.1944	940
573.7088	962
574.22321	960
574.73755	956
575.25195	983
575.7663	900
576.28058	923
576.79492	879
577.3092	919
577.82349	880
578.33777	862
578.85205	859
579.36627	937
579.88049	828
580.39471	847
580.90887	902
581.42303	870
581.93719	824
582.45135	883
582.96545	880
583.47955	841
583.99365	815
584.50775	844
585.02179	816
585.53583	779
586.04987	765
586.5639	796
587.07788	799
587.59186	871
588.10583	737
588.61975	833
589.13373	813
589.64758	730
590.1615	755
590.67542	736
591.18927	785
591.70306	790
592.21692	744
592.73071	740
593.24451	729
593.7583	754
594.27209	772
594.78583	719
595.29956	792
595.81323	726
596.32697	705
596.84064	680
597.35425	734
597.86792	730
598.38153	700
598.89514	680
599.40875	752
599.9223	721
600.43585	692
600.9494	706
601.46289	681
601.97638	693
602.48987	613
603.00336	639
603.51678	648
604.03021	675
604.54364	630
605.05701	640
605.57043	673
606.08374	666
606.59711	614
607.11041	629
607.62372	611
608.13702	638
608.65027	594
609.16351	604
609.67676	624
610.19	631
610.70319	631
611.21637	599
611.72949	632
612.24268	581
612.75574	620
613.26886	586
613.78192	593
614.29504	599
614.80804	555
615.32111	580
615.83411	593
616.34711	597
616.86005	561
617.37299	570
617.88593	571
618.39886	582
618.91174	536
619.42462	548
619.9375	557
620.45032	542
620.96313	543
621.47595	572
621.98871	529
622.50146	538
623.01422	542
623.52692	539
624.03967	494
624.55231	558
625.065	570
625.57764	549
626.09027	611
626.60284	500
627.11542	519
627.62799	547
628.14056	539
628.65308	551
629.16559	513
629.6781	501
630.19055	512
630.703	531
631.21539	525
631.72784	483
632.24017	512
632.75256	500
633.26489	494
633.77722	497
634.28955	485
634.80182	477
635.31409	489
635.82635	532
636.33856	488
636.85077	445
637.36292	480
637.87512	498
638.38721	477
638.89935	485
639.41144	484
639.92352	483
640.43561	475
640.94763	457
641.45966	465
641.97162	453
642.48358	454
642.99554	456
643.50751	488
644.01941	470
644.53131	467
645.04315	447
645.55499	436
646.06683	428
646.57861	457
647.09045	434
647.60217	441
648.11395	417
648.62567	427
649.13733	454
649.64905	414
650.16064	450
650.6723	411
651.1839	439
651.6955	404
652.20709	446
652.71863	417
653.23016	425
653.74164	466
654.25311	447
654.76459	432
655.276	418
655.78741	426
656.29883	421
656.81018	416
657.32153	412
657.83289	387
658.34418	414
658.85547	418
659.3667	405
659.87793	407
660.38916	400
660.90033	410
661.4115	379
661.92267	398
662.43378	414
662.94489	407
663.45593	385
663.96698	389
664.47803	393
664.98907	381
665.50006	367
666.01099	382
666.52191	387
667.03284	394
667.54376	413
668.05463	415
668.56549	381
669.07629	414
669.5871	387
670.0979	397
670.60864	388
671.11938	367
671.63007	360
672.14075	387
672.65143	398
673.16205	403
673.67267	371
674.18329	380
674.69385	380
675.20435	394
675.7149	371
676.2254	365
676.73584	384
677.24628	367
677.75671	380
678.26715	374
678.77753	361
679.28784	368
679.79822	359
680.30847	395
680.81879	372
681.32904	353
681.83923	336
682.34949	358
682.85968	369
683.36981	380
683.87994	365
684.39008	342
684.90015	372
685.41022	367
685.92023	359
686.43024	359
686.94025	353
687.4502	344
687.96014	345
688.47003	374
688.97992	340
689.48981	332
689.99963	342
690.50946	366
691.01923	349
691.52899	344
692.03876	335
692.54846	350
693.05817	347
693.56781	347
694.07745	331
694.58704	359
695.09662	368
695.6062	347
696.11572	333
696.62524	326
697.1347	348
697.64417	355
698.15363	338
698.66302	359
699.17242	350
699.68176	351
700.1911	354
700.70044	353
701.20972	348
701.71893	352
702.22815	354
702.73737	351
703.24652	360
703.75568	334
704.26483	345
704.77393	333
705.28302	348
705.79205	330
706.30103	355
706.81006	335
707.31903	356
707.82794	348
708.33685	322
708.84576	346
709.35461	344
709.86346	332
710.37225	348
710.88104	348
711.38977	333
711.8985	353
712.40723	333
712.91589	340
713.42456	326
713.93317	331
714.44177	333
714.95032	326
715.45886	346
715.96735	334
716.47583	351
716.98431	337
717.49274	308
718.00116	347
718.50952	332
719.01788	319
719.52618	340
720.03448	321
720.54272	322
721.05096	311
721.5592	327
722.06738	353
722.57556	327
723.08368	316
723.59174	325
724.09985	345
724.60791	335
725.11591	356
725.6239	340
726.13184	345
726.63977	344
727.14771	320
727.65558	316
728.16339	320
728.67126	322
729.17902	337
729.68683	347
730.19452	343
730.70227	327
731.2099	324
731.71759	316
732.22522	331
732.73279	355
733.24036	330
733.74792	330
734.25543	313
734.76288	327
735.27032	308
735.77777	330
736.28516	332
736.79254	313
737.29987	325
737.80719	322
738.31445	325
738.82172	331
739.32892	321
739.83612	336
740.34326	344
740.8504	314
741.35748	320
741.86456	323
742.37164	324
742.87866	328
743.38562	318
743.89258	303
744.39954	320
744.90643	330
745.41327	314
745.9201	309
746.42694	328
746.93372	306
747.44049	342
747.9472	329
748.45386	342
748.96057	304
749.46716	299
749.97375	334
750.48035	322
750.98688	316
751.49341	300
751.99988	330
752.50635	314
753.01276	311
753.51917	328
754.02551	337
754.53186	336
755.03815	335
755.54443	317
756.05066	351
756.55688	317
757.06305	320
757.56921	326
758.07532	334
758.58142	301
759.08746	312
759.59351	321
760.09949	312
760.60547	307
761.11139	323
761.61725	310
762.12317	314
762.62897	323
763.13483	309
763.64056	306
764.1463	296
764.65204	298
765.15771	323
765.66339	317
766.16901	322
766.67462	327
767.18018	322
767.68567	311
768.19116	323
768.69666	322
769.20209	314
769.70746	333
770.21283	308
770.7182	319
771.22351	300
771.72876	325
772.23401	314
772.73926	336
773.24445	333
773.74957	316
774.2547	326
774.75977	303
775.26483	310
775.76984	303
776.27484	334
776.77979	311
777.28473	313
777.78961	319
778.29449	319
778.79932	318
779.30408	299
779.80884	321
780.3136	338
780.8183	313
781.32294	320
781.82758	319
782.33215	316
782.83673	307
783.34131	325
783.84576	332
784.35028	319
784.85468	327
785.35907	336
785.86346	333
786.3678	320
786.87213	307
787.3764	323
787.88062	294
788.38483	319
788.88898	338
789.39313	310
789.89722	295
790.40131	306
790.90533	301
791.40936	316
791.91333	318
792.4173	304
792.9212	320
793.42505	304
793.92889	333
794.43268	304
794.93646	322
795.44019	298
795.94391	315
796.44757	318
796.95123	324
797.45483	324
797.95837	315
798.46191	329
798.96539	309
799.46887	330
799.97235	314
800.47571	314
800.97906	298
801.48242	318
801.98572	338
802.48895	337
802.99219	307
803.49536	291
803.99854	313
804.50165	312
805.00476	299
805.50781	290
806.01086	307
806.51379	310
807.01678	318
807.51971	319
808.02258	311
808.52539	330
809.02826	298
809.53101	300
810.03375	307
810.53644	309
811.03912	294
811.54175	315
812.04437	325
812.54694	312
813.04944	321
813.55194	307
814.05444	299
814.55682	341
815.05927	316
815.56158	297
816.0639	326
816.56622	334
817.06842	319
817.57068	308
818.07281	307
818.57495	311
819.07709	316
819.57916	302
820.08118	307
820.58319	315
821.08514	327
821.5871	314
822.08899	306
822.59082	294
823.09265	328
823.59442	297
824.09619	305
824.5979	308
825.09955	331
825.6012	322
826.10278	307
826.60437	328
827.1059	313
827.60736	336
828.10883	329
828.61023	335
829.11163	311
829.61298	328
830.11432	312
830.61554	316
831.11682	333
831.61798	306
832.11914	302
832.6203	306
833.1214	305
833.62244	325
834.12347	308
834.62445	299
835.12537	324
835.62628	308
836.12714	315
836.62799	342
837.12878	291
837.62952	304
838.13025	304
838.63092	311
839.13153	299
839.63214	339
840.13275	300
840.63324	319
841.13373	295
841.63422	324
842.13464	327
842.63501	315
843.13538	320
843.63568	306
844.13593	294
844.63617	296
845.13635	299
845.63647	346
846.1366	317
846.63672	303
847.13672	326
847.63672	298
848.13672	303
848.6366	304
849.13647	334
849.63635	321
850.13617	299
850.63593	319
851.13568	320
851.63538	321
852.13501	306
852.63464	321
853.13422	311
853.63373	319
854.13324	328
854.63275	318
855.13214	310
855.63153	286
856.13086	328
856.63019	311
857.12946	303
857.62866	321
858.12787	307
858.62701	316
859.12616	315
859.62524	298
860.12427	310
860.62323	332
861.12219	340
861.62109	331
862.12	309
862.61884	321
863.11761	311
863.61639	319
864.11511	294
864.61377	323
865.11243	309
865.61102	322
866.10962	314
866.60809	299
867.10663	321
867.60504	301
868.10345	310
868.60181	302
869.10016	320
869.59839	315
870.09668	325
870.59485	327
871.09302	340
871.59113	319
872.08923	307
872.58728	317
873.08527	332
873.58325	318
874.08118	321
874.57904	329
875.0769	322
875.57465	321
876.07245	315
876.57013	328
877.06781	322
877.56549	313
878.06305	322
878.56061	342
879.05817	346
879.5556	319
880.05304	326
880.55042	336
881.04779	321
881.5451	340
882.04236	304
882.53961	319
883.0368	334
883.53394	307
884.03107	302
884.52808	309
885.02515	328
