Date and Time:                Sun Nov 2 14:23:38.889 2025
Software Version:             4.30.30000.0
Temperature (C):              -90
Model:                        DU971P_UVB
Data Type:                    Counts
Acquisition Mode:             Single Scan
Trigger Mode:                 Internal
Exposure Time (secs):         30
Readout Mode:                 Full Vertical Binning
Horizontal binning:           2
Extended Dynamic Range:       off
Horizontally flipped:         false
Vertical Shift Speed (usecs): 9.68
Pixel Readout Rate (MHz):     3
Baseline Clamp:               ON
Clock Amplitude:              Normal
Output Amplifier:             Conventional
Serial Number:                20367
Pre-Amplifier Gain:           4x
Spurious Noise Filter Mode:   No Filter
Photon counted:               false
Data Averaging Filter Mode:   No Filter
SR193i:
Serial Number:                SR-2646
Wavelength (nm):              690
Grating Groove Density (l/mm):300
Grating Blaze:                500nm
Input Side Slit Width (um):   1000



478.32681	296
478.84332	321
479.35983	324
479.87631	348
480.39282	325
480.9093	324
481.42575	325
481.94223	325
482.45868	323
482.97513	337
483.49158	306
484.00803	327
484.52444	325
485.04086	343
485.55728	338
486.07367	335
486.59006	320
487.10645	323
487.62283	326
488.13919	333
488.65555	338
489.17191	339
489.68826	346
490.20459	348
490.72092	325
491.23724	341
491.75354	342
492.26984	346
492.78613	343
493.30243	361
493.8187	347
494.33496	351
494.85123	363
495.36746	336
495.8837	367
496.39993	360
496.91617	367
497.43237	352
497.94858	360
498.46478	344
498.98096	358
499.49713	383
500.01331	350
500.52945	361
501.04562	333
501.56174	350
502.07788	380
502.59399	355
503.11011	374
503.62622	348
504.1423	361
504.65839	356
505.17447	353
505.69052	341
506.20657	354
506.72263	340
507.23865	387
507.75467	355
508.27069	373
508.78668	350
509.30267	351
509.81866	350
510.33463	342
510.85059	337
511.36655	358
511.88248	345
512.39844	305
512.91437	354
513.43024	348
513.94617	345
514.46204	343
514.97791	373
515.49377	359
516.00964	354
516.52551	383
517.04132	346
517.55719	346
518.073	366
518.58881	354
519.10461	354
519.62036	354
520.13617	359
520.65192	359
521.16766	349
521.68341	331
522.1991	357
522.71484	349
523.23053	352
523.74622	359
524.2619	356
524.77759	357
525.29327	365
525.8089	358
526.32452	351
526.84015	345
527.35577	354
527.8714	367
528.38696	372
528.90259	359
529.41815	333
529.93372	356
530.44922	363
530.96478	339
531.48029	352
531.99579	351
532.51129	350
533.02679	376
533.5423	350
534.05774	345
534.57318	335
535.08862	349
535.60406	346
536.11945	337
536.63489	348
537.15027	340
537.66565	339
538.18097	358
538.69635	364
539.21167	355
539.72699	366
540.24231	348
540.75763	346
541.27289	359
541.78821	329
542.30347	362
542.81873	341
543.33392	380
543.84918	338
544.36438	346
544.87958	339
545.39478	329
545.90991	348
546.42511	353
546.94025	349
547.45538	360
547.97052	332
548.4856	351
549.00073	362
549.51581	355
550.03088	352
550.5459	352
551.06097	342
551.57599	346
552.091	359
552.60602	344
553.12097	349
553.63593	346
554.15094	345
554.66583	359
555.18079	348
555.69568	335
556.21063	386
556.72552	348
557.24036	340
557.75525	345
558.27008	344
558.78491	329
559.29974	327
559.81458	331
560.32935	340
560.84412	336
561.35889	352
561.87366	339
562.38837	366
562.90308	334
563.41779	345
563.9325	356
564.44714	341
564.96179	361
565.47644	334
565.99109	334
566.50574	318
567.02032	369
567.53491	337
568.0495	357
568.56403	349
569.07861	343
569.59314	328
570.1076	328
570.62213	348
571.1366	349
571.65106	328
572.16553	325
572.67999	333
573.1944	348
573.7088	345
574.22321	342
574.73755	327
575.25195	346
575.7663	328
576.28058	330
576.79492	357
577.3092	345
577.82349	326
578.33777	334
578.85205	328
579.36627	329
579.88049	334
580.39471	338
580.90887	319
581.42303	332
581.93719	346
582.45135	313
582.96545	322
583.47955	312
583.99365	339
584.50775	334
585.02179	354
585.53583	328
586.04987	328
586.5639	325
587.07788	300
587.59186	326
588.10583	338
588.61975	312
589.13373	334
589.64758	336
590.1615	338
590.67542	342
591.18927	332
591.70306	328
592.21692	340
592.73071	329
593.24451	335
593.7583	325
594.27209	341
594.78583	348
595.29956	329
595.81323	336
596.32697	324
596.84064	336
597.35425	313
597.86792	318
598.38153	334
598.89514	307
599.40875	356
599.9223	312
600.43585	343
600.9494	341
601.46289	317
601.97638	335
602.48987	331
603.00336	341
603.51678	333
604.03021	306
604.54364	365
605.05701	337
605.57043	320
606.08374	345
606.59711	329
607.11041	335
607.62372	319
608.13702	323
608.65027	330
609.16351	317
609.67676	339
610.19	328
610.70319	335
611.21637	340
611.72949	335
612.24268	319
612.75574	314
613.26886	322
613.78192	327
614.29504	336
614.80804	349
615.32111	316
615.83411	325
616.34711	332
616.86005	320
617.37299	360
617.88593	321
618.39886	321
618.91174	310
619.42462	321
619.9375	322
620.45032	341
620.96313	322
621.47595	333
621.98871	346
622.50146	322
623.01422	332
623.52692	330
624.03967	340
624.55231	327
625.065	336
625.57764	344
626.09027	319
626.60284	316
627.11542	332
627.62799	324
628.14056	311
628.65308	357
629.16559	332
629.6781	328
630.19055	325
630.703	308
631.21539	320
631.72784	320
632.24017	327
632.75256	328
633.26489	346
633.77722	327
634.28955	341
634.80182	307
635.31409	341
635.82635	348
636.33856	310
636.85077	318
637.36292	331
637.87512	344
638.38721	306
638.89935	337
639.41144	319
639.92352	326
640.43561	323
640.94763	335
641.45966	344
641.97162	321
642.48358	336
642.99554	324
643.50751	319
644.01941	341
644.53131	326
645.04315	330
645.55499	319
646.06683	322
646.57861	320
647.09045	327
647.60217	324
648.11395	317
648.62567	319
649.13733	335
649.64905	357
650.16064	345
650.6723	336
651.1839	318
651.6955	325
652.20709	320
652.71863	320
653.23016	335
653.74164	315
654.25311	342
654.76459	330
655.276	327
655.78741	311
656.29883	340
656.81018	346
657.32153	305
657.83289	307
658.34418	307
658.85547	328
659.3667	307
659.87793	341
660.38916	350
660.90033	321
661.4115	326
661.92267	310
662.43378	334
662.94489	331
663.45593	351
663.96698	329
664.47803	329
664.98907	344
665.50006	328
666.01099	345
666.52191	325
667.03284	330
667.54376	329
668.05463	323
668.56549	331
669.07629	323
669.5871	344
670.0979	312
670.60864	324
671.11938	325
671.63007	320
672.14075	319
672.65143	320
673.16205	319
673.67267	326
674.18329	345
674.69385	322
675.20435	316
675.7149	308
676.2254	316
676.73584	308
677.24628	354
677.75671	316
678.26715	335
678.77753	316
679.28784	312
679.79822	351
680.30847	316
680.81879	309
681.32904	313
681.83923	350
682.34949	316
682.85968	317
683.36981	316
683.87994	330
684.39008	335
684.90015	324
685.41022	322
685.92023	332
686.43024	325
686.94025	320
687.4502	332
687.96014	333
688.47003	313
688.97992	312
689.48981	327
689.99963	334
690.50946	324
691.01923	312
691.52899	337
692.03876	322
692.54846	329
693.05817	325
693.56781	311
694.07745	318
694.58704	337
695.09662	336
695.6062	351
696.11572	321
696.62524	303
697.1347	320
697.64417	308
698.15363	316
698.66302	311
699.17242	298
699.68176	325
700.1911	319
700.70044	343
701.20972	302
701.71893	299
702.22815	308
702.73737	341
703.24652	319
703.75568	303
704.26483	332
704.77393	310
705.28302	313
705.79205	302
706.30103	310
706.81006	315
707.31903	329
707.82794	319
708.33685	334
708.84576	308
709.35461	317
709.86346	314
710.37225	329
710.88104	329
711.38977	324
711.8985	321
712.40723	327
712.91589	299
713.42456	326
713.93317	334
714.44177	328
714.95032	349
715.45886	317
715.96735	316
716.47583	328
716.98431	312
717.49274	315
718.00116	321
718.50952	310
719.01788	329
719.52618	312
720.03448	311
720.54272	301
721.05096	309
721.5592	321
722.06738	320
722.57556	341
723.08368	324
723.59174	321
724.09985	331
724.60791	329
725.11591	329
725.6239	298
726.13184	327
726.63977	289
727.14771	303
727.65558	321
728.16339	297
728.67126	308
729.17902	311
729.68683	326
730.19452	292
730.70227	336
731.2099	315
731.71759	320
732.22522	325
732.73279	304
733.24036	310
733.74792	316
734.25543	319
734.76288	317
735.27032	319
735.77777	335
736.28516	311
736.79254	314
737.29987	312
737.80719	336
738.31445	321
738.82172	347
739.32892	303
739.83612	309
740.34326	304
740.8504	293
741.35748	297
741.86456	294
742.37164	335
742.87866	337
743.38562	325
743.89258	312
744.39954	312
744.90643	298
745.41327	313
745.9201	310
746.42694	315
746.93372	328
747.44049	291
747.9472	323
748.45386	327
748.96057	318
749.46716	301
749.97375	318
750.48035	308
750.98688	306
751.49341	320
751.99988	316
752.50635	315
753.01276	323
753.51917	311
754.02551	335
754.53186	309
755.03815	305
755.54443	308
756.05066	316
756.55688	320
757.06305	322
757.56921	322
758.07532	333
758.58142	312
759.08746	316
759.59351	306
760.09949	307
760.60547	309
761.11139	306
761.61725	324
762.12317	331
762.62897	308
763.13483	320
763.64056	325
764.1463	322
764.65204	316
765.15771	332
765.66339	324
766.16901	341
766.67462	313
767.18018	323
767.68567	310
768.19116	326
768.69666	323
769.20209	323
769.70746	318
770.21283	344
770.7182	341
771.22351	315
771.72876	331
772.23401	328
772.73926	322
773.24445	305
773.74957	309
774.2547	330
774.75977	326
775.26483	306
775.76984	334
776.27484	329
776.77979	316
777.28473	302
777.78961	324
778.29449	300
778.79932	331
779.30408	331
779.80884	331
780.3136	330
780.8183	317
781.32294	321
781.82758	301
782.33215	316
782.83673	336
783.34131	317
783.84576	332
784.35028	322
784.85468	320
785.35907	324
785.86346	346
786.3678	313
786.87213	307
787.3764	302
787.88062	292
788.38483	307
788.88898	338
789.39313	314
789.89722	289
790.40131	315
790.90533	301
791.40936	318
791.91333	315
792.4173	302
792.9212	306
793.42505	315
793.92889	327
794.43268	326
794.93646	304
795.44019	320
795.94391	313
796.44757	335
796.95123	304
797.45483	313
797.95837	325
798.46191	307
798.96539	327
799.46887	319
799.97235	321
800.47571	303
800.97906	308
801.48242	328
801.98572	330
802.48895	335
802.99219	304
803.49536	332
803.99854	324
804.50165	286
805.00476	292
805.50781	304
806.01086	310
806.51379	288
807.01678	317
807.51971	296
808.02258	322
808.52539	343
809.02826	322
809.53101	307
810.03375	327
810.53644	313
811.03912	324
811.54175	310
812.04437	322
812.54694	334
813.04944	305
813.55194	316
814.05444	320
814.55682	320
815.05927	322
815.56158	298
816.0639	310
816.56622	316
817.06842	317
817.57068	322
818.07281	339
818.57495	320
819.07709	327
819.57916	307
820.08118	311
820.58319	314
821.08514	330
821.5871	313
822.08899	312
822.59082	331
823.09265	320
823.59442	319
824.09619	311
824.5979	316
825.09955	303
825.6012	308
826.10278	314
826.60437	319
827.1059	319
827.60736	329
828.10883	318
828.61023	316
829.11163	312
829.61298	294
830.11432	336
830.61554	319
831.11682	321
831.61798	312
832.11914	312
832.6203	329
833.1214	308
833.62244	327
834.12347	314
834.62445	322
835.12537	320
835.62628	322
836.12714	333
836.62799	320
837.12878	331
837.62952	320
838.13025	328
838.63092	306
839.13153	298
839.63214	338
840.13275	327
840.63324	320
841.13373	303
841.63422	319
842.13464	328
842.63501	296
843.13538	293
843.63568	333
844.13593	307
844.63617	309
845.13635	328
845.63647	308
846.1366	306
846.63672	297
847.13672	321
847.63672	319
848.13672	326
848.6366	302
849.13647	308
849.63635	322
850.13617	330
850.63593	319
851.13568	308
851.63538	330
852.13501	326
852.63464	326
853.13422	330
853.63373	316
854.13324	313
854.63275	315
855.13214	315
855.63153	300
856.13086	346
856.63019	330
857.12946	310
857.62866	321
858.12787	303
858.62701	331
859.12616	318
859.62524	310
860.12427	339
860.62323	309
861.12219	309
861.62109	307
862.12	317
862.61884	319
863.11761	324
863.61639	315
864.11511	303
864.61377	325
865.11243	312
865.61102	309
866.10962	334
866.60809	332
867.10663	337
867.60504	316
868.10345	297
868.60181	311
869.10016	318
869.59839	332
870.09668	338
870.59485	351
871.09302	397
871.59113	401
872.08923	426
872.58728	436
873.08527	445
873.58325	446
874.08118	475
874.57904	466
875.0769	470
875.57465	446
876.07245	473
876.57013	466
877.06781	464
877.56549	475
878.06305	491
878.56061	464
879.05817	480
879.5556	504
880.05304	478
880.55042	475
881.04779	498
881.5451	470
882.04236	484
882.53961	486
883.0368	454
883.53394	485
884.03107	510
884.52808	483
885.02515	437
