Date and Time:                Sat Oct 18 13:54:52.606 2025
Software Version:             4.30.30000.0
Temperature (C):              -90
Model:                        DU971P_UVB
Data Type:                    Counts
Acquisition Mode:             Single Scan
Trigger Mode:                 Internal
Exposure Time (secs):         30
Readout Mode:                 Full Vertical Binning
Horizontal binning:           2
Extended Dynamic Range:       off
Horizontally flipped:         false
Vertical Shift Speed (usecs): 9.68
Pixel Readout Rate (MHz):     3
Baseline Clamp:               ON
Clock Amplitude:              Normal
Output Amplifier:             Conventional
Serial Number:                20367
Pre-Amplifier Gain:           4x
Spurious Noise Filter Mode:   No Filter
Photon counted:               false
Data Averaging Filter Mode:   No Filter
SR193i:
Serial Number:                SR-2646
Wavelength (nm):              690
Grating Groove Density (l/mm):300
Grating Blaze:                500nm
Input Side Slit Width (um):   1000



478.32681	316
478.84332	366
479.35983	361
479.87631	374
480.39282	350
480.9093	387
481.42575	367
481.94223	370
482.45868	366
482.97513	374
483.49158	394
484.00803	380
484.52444	388
485.04086	373
485.55728	409
486.07367	421
486.59006	422
487.10645	415
487.62283	409
488.13919	404
488.65555	406
489.17191	417
489.68826	438
490.20459	434
490.72092	466
491.23724	449
491.75354	430
492.26984	442
492.78613	479
493.30243	451
493.8187	461
494.33496	457
494.85123	477
495.36746	479
495.8837	522
496.39993	509
496.91617	466
497.43237	513
497.94858	512
498.46478	531
498.98096	497
499.49713	524
500.01331	540
500.52945	539
501.04562	524
501.56174	505
502.07788	505
502.59399	525
503.11011	521
503.62622	491
504.1423	532
504.65839	492
505.17447	501
505.69052	500
506.20657	522
506.72263	512
507.23865	507
507.75467	526
508.27069	505
508.78668	496
509.30267	478
509.81866	513
510.33463	527
510.85059	507
511.36655	483
511.88248	506
512.39844	489
512.91437	508
513.43024	501
513.94617	504
514.46204	492
514.97791	485
515.49377	501
516.00964	475
516.52551	500
517.04132	507
517.55719	466
518.073	529
518.58881	470
519.10461	499
519.62036	519
520.13617	493
520.65192	473
521.16766	476
521.68341	521
522.1991	468
522.71484	462
523.23053	449
523.74622	499
524.2619	480
524.77759	494
525.29327	478
525.8089	477
526.32452	489
526.84015	473
527.35577	473
527.8714	488
528.38696	454
528.90259	459
529.41815	456
529.93372	452
530.44922	492
530.96478	513
531.48029	479
531.99579	478
532.51129	470
533.02679	477
533.5423	469
534.05774	460
534.57318	481
535.08862	458
535.60406	476
536.11945	475
536.63489	475
537.15027	463
537.66565	431
538.18097	455
538.69635	442
539.21167	447
539.72699	464
540.24231	454
540.75763	465
541.27289	434
541.78821	474
542.30347	499
542.81873	454
543.33392	467
543.84918	462
544.36438	482
544.87958	509
545.39478	463
545.90991	463
546.42511	454
546.94025	445
547.45538	466
547.97052	467
548.4856	459
549.00073	457
549.51581	480
550.03088	479
550.5459	434
551.06097	451
551.57599	481
552.091	460
552.60602	462
553.12097	447
553.63593	424
554.15094	467
554.66583	486
555.18079	462
555.69568	458
556.21063	459
556.72552	441
557.24036	453
557.75525	485
558.27008	459
558.78491	456
559.29974	437
559.81458	502
560.32935	462
560.84412	465
561.35889	448
561.87366	430
562.38837	477
562.90308	487
563.41779	530
563.9325	497
564.44714	512
564.96179	450
565.47644	522
565.99109	503
566.50574	517
567.02032	475
567.53491	495
568.0495	491
568.56403	511
569.07861	492
569.59314	499
570.1076	503
570.62213	522
571.1366	502
571.65106	563
572.16553	538
572.67999	532
573.1944	537
573.7088	524
574.22321	493
574.73755	515
575.25195	530
575.7663	560
576.28058	573
576.79492	582
577.3092	572
577.82349	531
578.33777	543
578.85205	549
579.36627	540
579.88049	566
580.39471	569
580.90887	572
581.42303	584
581.93719	554
582.45135	560
582.96545	582
583.47955	571
583.99365	590
584.50775	575
585.02179	620
585.53583	553
586.04987	597
586.5639	601
587.07788	561
587.59186	627
588.10583	608
588.61975	605
589.13373	617
589.64758	593
590.1615	576
590.67542	640
591.18927	631
591.70306	617
592.21692	608
592.73071	634
593.24451	601
593.7583	609
594.27209	664
594.78583	662
595.29956	595
595.81323	630
596.32697	622
596.84064	611
597.35425	649
597.86792	686
598.38153	639
598.89514	633
599.40875	643
599.9223	609
600.43585	622
600.9494	659
601.46289	661
601.97638	653
602.48987	643
603.00336	689
603.51678	684
604.03021	685
604.54364	646
605.05701	641
605.57043	666
606.08374	652
606.59711	697
607.11041	605
607.62372	651
608.13702	666
608.65027	639
609.16351	685
609.67676	615
610.19	656
610.70319	661
611.21637	683
611.72949	657
612.24268	644
612.75574	609
613.26886	634
613.78192	668
614.29504	666
614.80804	657
615.32111	629
615.83411	637
616.34711	640
616.86005	657
617.37299	675
617.88593	607
618.39886	637
618.91174	634
619.42462	629
619.9375	615
620.45032	653
620.96313	687
621.47595	641
621.98871	618
622.50146	660
623.01422	685
623.52692	653
624.03967	644
624.55231	641
625.065	613
625.57764	625
626.09027	623
626.60284	654
627.11542	632
627.62799	595
628.14056	619
628.65308	612
629.16559	617
629.6781	585
630.19055	586
630.703	621
631.21539	630
631.72784	579
632.24017	584
632.75256	607
633.26489	606
633.77722	613
634.28955	609
634.80182	597
635.31409	590
635.82635	637
636.33856	571
636.85077	570
637.36292	602
637.87512	586
638.38721	585
638.89935	605
639.41144	535
639.92352	583
640.43561	589
640.94763	559
641.45966	625
641.97162	590
642.48358	542
642.99554	564
643.50751	571
644.01941	562
644.53131	550
645.04315	597
645.55499	557
646.06683	563
646.57861	555
647.09045	562
647.60217	583
648.11395	543
648.62567	555
649.13733	549
649.64905	567
650.16064	535
650.6723	524
651.1839	520
651.6955	570
652.20709	529
652.71863	557
653.23016	536
653.74164	579
654.25311	563
654.76459	533
655.276	561
655.78741	505
656.29883	538
656.81018	530
657.32153	529
657.83289	506
658.34418	527
658.85547	504
659.3667	530
659.87793	539
660.38916	556
660.90033	527
661.4115	567
661.92267	532
662.43378	535
662.94489	522
663.45593	506
663.96698	511
664.47803	521
664.98907	488
665.50006	516
666.01099	513
666.52191	1424
667.03284	1695
667.54376	513
668.05463	525
668.56549	478
669.07629	501
669.5871	503
670.0979	486
670.60864	523
671.11938	501
671.63007	492
672.14075	461
672.65143	490
673.16205	498
673.67267	481
674.18329	511
674.69385	497
675.20435	495
675.7149	515
676.2254	492
676.73584	494
677.24628	482
677.75671	464
678.26715	486
678.77753	472
679.28784	466
679.79822	493
680.30847	480
680.81879	465
681.32904	435
681.83923	467
682.34949	459
682.85968	444
683.36981	472
683.87994	482
684.39008	454
684.90015	451
685.41022	480
685.92023	459
686.43024	454
686.94025	444
687.4502	459
687.96014	476
688.47003	456
688.97992	439
689.48981	420
689.99963	439
690.50946	438
691.01923	466
691.52899	436
692.03876	418
692.54846	455
693.05817	448
693.56781	1260
694.07745	474
694.58704	448
695.09662	434
695.6062	443
696.11572	443
696.62524	424
697.1347	410
697.64417	426
698.15363	413
698.66302	415
699.17242	427
699.68176	443
700.1911	439
700.70044	403
701.20972	430
701.71893	410
702.22815	418
702.73737	439
703.24652	425
703.75568	424
704.26483	412
704.77393	400
705.28302	389
705.79205	433
706.30103	409
706.81006	406
707.31903	398
707.82794	385
708.33685	432
708.84576	399
709.35461	414
709.86346	402
710.37225	401
710.88104	396
711.38977	368
711.8985	370
712.40723	407
712.91589	392
713.42456	401
713.93317	400
714.44177	401
714.95032	396
715.45886	393
715.96735	377
716.47583	381
716.98431	374
717.49274	395
718.00116	409
718.50952	375
719.01788	380
719.52618	401
720.03448	369
720.54272	389
721.05096	387
721.5592	377
722.06738	382
722.57556	381
723.08368	380
723.59174	390
724.09985	418
724.60791	391
725.11591	389
725.6239	376
726.13184	387
726.63977	375
727.14771	377
727.65558	375
728.16339	360
728.67126	389
729.17902	378
729.68683	352
730.19452	387
730.70227	377
731.2099	351
731.71759	387
732.22522	360
732.73279	378
733.24036	357
733.74792	337
734.25543	363
734.76288	389
735.27032	363
735.77777	382
736.28516	369
736.79254	374
737.29987	353
737.80719	348
738.31445	355
738.82172	377
739.32892	375
739.83612	370
740.34326	362
740.8504	357
741.35748	361
741.86456	354
742.37164	341
742.87866	386
743.38562	364
743.89258	329
744.39954	369
744.90643	323
745.41327	351
745.9201	384
746.42694	366
746.93372	391
747.44049	373
747.9472	359
748.45386	355
748.96057	357
749.46716	381
749.97375	376
750.48035	360
750.98688	365
751.49341	350
751.99988	356
752.50635	362
753.01276	337
753.51917	375
754.02551	371
754.53186	393
755.03815	360
755.54443	345
756.05066	330
756.55688	360
757.06305	366
757.56921	345
758.07532	365
758.58142	361
759.08746	349
759.59351	330
760.09949	360
760.60547	328
761.11139	363
761.61725	346
762.12317	346
762.62897	339
763.13483	362
763.64056	382
764.1463	342
764.65204	349
765.15771	333
765.66339	335
766.16901	341
766.67462	360
767.18018	357
767.68567	346
768.19116	366
768.69666	356
769.20209	347
769.70746	330
770.21283	319
770.7182	345
771.22351	306
771.72876	352
772.23401	327
772.73926	331
773.24445	359
773.74957	342
774.2547	347
774.75977	353
775.26483	350
775.76984	354
776.27484	342
776.77979	320
777.28473	337
777.78961	369
778.29449	345
778.79932	338
779.30408	355
779.80884	327
780.3136	337
780.8183	335
781.32294	358
781.82758	351
782.33215	336
782.83673	343
783.34131	331
783.84576	319
784.35028	349
784.85468	332
785.35907	318
785.86346	350
786.3678	338
786.87213	325
787.3764	316
787.88062	332
788.38483	326
788.88898	328
789.39313	325
789.89722	348
790.40131	351
790.90533	328
791.40936	323
791.91333	323
792.4173	318
792.9212	336
793.42505	347
793.92889	369
794.43268	348
794.93646	316
795.44019	325
795.94391	338
796.44757	338
796.95123	341
797.45483	344
797.95837	316
798.46191	314
798.96539	331
799.46887	321
799.97235	330
800.47571	321
800.97906	333
801.48242	339
801.98572	331
802.48895	329
802.99219	336
803.49536	316
803.99854	363
804.50165	339
805.00476	343
805.50781	321
806.01086	315
806.51379	354
807.01678	327
807.51971	321
808.02258	346
808.52539	332
809.02826	314
809.53101	342
810.03375	340
810.53644	314
811.03912	349
811.54175	292
812.04437	328
812.54694	321
813.04944	314
813.55194	328
814.05444	356
814.55682	340
815.05927	317
815.56158	338
816.0639	333
816.56622	310
817.06842	336
817.57068	342
818.07281	338
818.57495	332
819.07709	341
819.57916	328
820.08118	325
820.58319	335
821.08514	330
821.5871	335
822.08899	320
822.59082	336
823.09265	333
823.59442	334
824.09619	330
824.5979	335
825.09955	333
825.6012	345
826.10278	321
826.60437	332
827.1059	320
827.60736	339
828.10883	329
828.61023	324
829.11163	322
829.61298	319
830.11432	313
830.61554	321
831.11682	328
831.61798	318
832.11914	328
832.6203	355
833.1214	324
833.62244	332
834.12347	325
834.62445	336
835.12537	329
835.62628	314
836.12714	333
836.62799	326
837.12878	314
837.62952	311
838.13025	328
838.63092	331
839.13153	317
839.63214	324
840.13275	343
840.63324	313
841.13373	311
841.63422	325
842.13464	335
842.63501	317
843.13538	344
843.63568	298
844.13593	327
844.63617	329
845.13635	336
845.63647	327
846.1366	318
846.63672	315
847.13672	338
847.63672	325
848.13672	342
848.6366	331
849.13647	316
849.63635	333
850.13617	326
850.63593	353
851.13568	319
851.63538	324
852.13501	311
852.63464	332
853.13422	333
853.63373	329
854.13324	333
854.63275	318
855.13214	305
855.63153	323
856.13086	322
856.63019	336
857.12946	327
857.62866	344
858.12787	336
858.62701	324
859.12616	325
859.62524	306
860.12427	345
860.62323	302
861.12219	328
861.62109	319
862.12	341
862.61884	320
863.11761	333
863.61639	351
864.11511	331
864.61377	286
865.11243	347
865.61102	354
866.10962	327
866.60809	325
867.10663	333
867.60504	336
868.10345	330
868.60181	313
869.10016	331
869.59839	336
870.09668	399
870.59485	490
871.09302	508
871.59113	663
872.08923	755
872.58728	796
873.08527	792
873.58325	875
874.08118	853
874.57904	856
875.0769	909
875.57465	881
876.07245	885
876.57013	934
877.06781	898
877.56549	942
878.06305	901
878.56061	905
879.05817	946
879.5556	938
880.05304	921
880.55042	974
881.04779	903
881.5451	901
882.04236	968
882.53961	978
883.0368	957
883.53394	979
884.03107	1037
884.52808	970
885.02515	933
