Date and Time:                Wed Oct 22 10:00:55.995 2025
Software Version:             4.30.30000.0
Temperature (C):              -90
Model:                        DU971P_UVB
Data Type:                    Counts
Acquisition Mode:             Single Scan
Trigger Mode:                 Internal
Exposure Time (secs):         30
Readout Mode:                 Full Vertical Binning
Horizontal binning:           2
Extended Dynamic Range:       off
Horizontally flipped:         false
Vertical Shift Speed (usecs): 9.68
Pixel Readout Rate (MHz):     3
Baseline Clamp:               ON
Clock Amplitude:              Normal
Output Amplifier:             Conventional
Serial Number:                20367
Pre-Amplifier Gain:           4x
Spurious Noise Filter Mode:   No Filter
Photon counted:               false
Data Averaging Filter Mode:   No Filter
SR193i:
Serial Number:                SR-2646
Wavelength (nm):              690
Grating Groove Density (l/mm):300
Grating Blaze:                500nm
Input Side Slit Width (um):   1000



478.32681	294
478.84332	374
479.35983	365
479.87631	387
480.39282	383
480.9093	356
481.42575	363
481.94223	348
482.45868	361
482.97513	357
483.49158	344
484.00803	345
484.52444	404
485.04086	421
485.55728	427
486.07367	402
486.59006	432
487.10645	438
487.62283	438
488.13919	466
488.65555	441
489.17191	474
489.68826	509
490.20459	516
490.72092	515
491.23724	499
491.75354	565
492.26984	551
492.78613	526
493.30243	579
493.8187	572
494.33496	620
494.85123	603
495.36746	637
495.8837	653
496.39993	647
496.91617	670
497.43237	645
497.94858	680
498.46478	754
498.98096	665
499.49713	678
500.01331	727
500.52945	649
501.04562	705
501.56174	685
502.07788	712
502.59399	691
503.11011	715
503.62622	673
504.1423	703
504.65839	719
505.17447	700
505.69052	698
506.20657	725
506.72263	710
507.23865	714
507.75467	679
508.27069	755
508.78668	669
509.30267	690
509.81866	701
510.33463	687
510.85059	724
511.36655	721
511.88248	696
512.39844	711
512.91437	714
513.43024	671
513.94617	691
514.46204	682
514.97791	695
515.49377	721
516.00964	647
516.52551	670
517.04132	683
517.55719	644
518.073	683
518.58881	666
519.10461	663
519.62036	671
520.13617	673
520.65192	706
521.16766	679
521.68341	630
522.1991	665
522.71484	695
523.23053	692
523.74622	688
524.2619	650
524.77759	634
525.29327	692
525.8089	690
526.32452	727
526.84015	666
527.35577	676
527.8714	700
528.38696	636
528.90259	662
529.41815	654
529.93372	637
530.44922	646
530.96478	649
531.48029	679
531.99579	644
532.51129	635
533.02679	605
533.5423	645
534.05774	639
534.57318	631
535.08862	695
535.60406	688
536.11945	653
536.63489	643
537.15027	651
537.66565	630
538.18097	672
538.69635	639
539.21167	633
539.72699	681
540.24231	642
540.75763	613
541.27289	666
541.78821	652
542.30347	670
542.81873	659
543.33392	685
543.84918	688
544.36438	636
544.87958	640
545.39478	649
545.90991	663
546.42511	695
546.94025	680
547.45538	638
547.97052	684
548.4856	668
549.00073	693
549.51581	714
550.03088	687
550.5459	662
551.06097	715
551.57599	727
552.091	716
552.60602	739
553.12097	801
553.63593	724
554.15094	769
554.66583	727
555.18079	771
555.69568	778
556.21063	816
556.72552	726
557.24036	800
557.75525	810
558.27008	804
558.78491	820
559.29974	796
559.81458	791
560.32935	838
560.84412	890
561.35889	789
561.87366	898
562.38837	909
562.90308	869
563.41779	836
563.9325	881
564.44714	837
564.96179	934
565.47644	945
565.99109	946
566.50574	1006
567.02032	954
567.53491	998
568.0495	964
568.56403	912
569.07861	1030
569.59314	991
570.1076	1089
570.62213	1026
571.1366	1104
571.65106	1051
572.16553	1096
572.67999	1099
573.1944	1117
573.7088	1112
574.22321	1170
574.73755	1228
575.25195	1140
575.7663	1125
576.28058	1223
576.79492	1183
577.3092	1185
577.82349	1162
578.33777	1251
578.85205	1223
579.36627	1271
579.88049	1290
580.39471	1327
580.90887	1323
581.42303	1356
581.93719	1310
582.45135	1334
582.96545	1348
583.47955	1357
583.99365	1403
584.50775	1440
585.02179	1311
585.53583	1404
586.04987	1486
586.5639	1408
587.07788	1427
587.59186	1530
588.10583	1468
588.61975	1510
589.13373	1513
589.64758	1492
590.1615	1527
590.67542	1451
591.18927	1514
591.70306	1570
592.21692	1630
592.73071	1569
593.24451	1561
593.7583	1546
594.27209	1560
594.78583	1580
595.29956	1638
595.81323	1599
596.32697	1582
596.84064	1612
597.35425	1635
597.86792	1615
598.38153	1608
598.89514	1569
599.40875	1723
599.9223	1701
600.43585	1590
600.9494	1710
601.46289	1649
601.97638	1695
602.48987	1709
603.00336	1632
603.51678	1663
604.03021	1694
604.54364	1702
605.05701	1662
605.57043	1672
606.08374	1641
606.59711	1710
607.11041	1758
607.62372	1683
608.13702	1680
608.65027	1629
609.16351	1731
609.67676	1699
610.19	1748
610.70319	1679
611.21637	1703
611.72949	1617
612.24268	1711
612.75574	1700
613.26886	1669
613.78192	1710
614.29504	1676
614.80804	1692
615.32111	1651
615.83411	1611
616.34711	1631
616.86005	1647
617.37299	1653
617.88593	1639
618.39886	1572
618.91174	1674
619.42462	1619
619.9375	1597
620.45032	1665
620.96313	1608
621.47595	1660
621.98871	1511
622.50146	1557
623.01422	1570
623.52692	1613
624.03967	1587
624.55231	1535
625.065	1626
625.57764	1617
626.09027	1561
626.60284	1570
627.11542	1502
627.62799	1584
628.14056	1485
628.65308	1508
629.16559	1582
629.6781	1471
630.19055	1481
630.703	1457
631.21539	1454
631.72784	1479
632.24017	1514
632.75256	1462
633.26489	1439
633.77722	1498
634.28955	1417
634.80182	1434
635.31409	1491
635.82635	1341
636.33856	1431
636.85077	1420
637.36292	1446
637.87512	1380
638.38721	1442
638.89935	1353
639.41144	1387
639.92352	1326
640.43561	1408
640.94763	1349
641.45966	1380
641.97162	1317
642.48358	1335
642.99554	1376
643.50751	1299
644.01941	1265
644.53131	1264
645.04315	1231
645.55499	1293
646.06683	1288
646.57861	1260
647.09045	1266
647.60217	1261
648.11395	1179
648.62567	1289
649.13733	1233
649.64905	1209
650.16064	1173
650.6723	1257
651.1839	1255
651.6955	1209
652.20709	1179
652.71863	1134
653.23016	1152
653.74164	1186
654.25311	1097
654.76459	1123
655.276	1203
655.78741	1137
656.29883	1170
656.81018	1091
657.32153	1157
657.83289	1122
658.34418	1096
658.85547	1124
659.3667	1079
659.87793	1074
660.38916	1094
660.90033	1151
661.4115	1084
661.92267	1054
662.43378	1021
662.94489	1056
663.45593	984
663.96698	1049
664.47803	1003
664.98907	1021
665.50006	980
666.01099	1080
666.52191	991
667.03284	1011
667.54376	988
668.05463	958
668.56549	984
669.07629	979
669.5871	1051
670.0979	1006
670.60864	994
671.11938	954
671.63007	990
672.14075	956
672.65143	912
673.16205	907
673.67267	966
674.18329	979
674.69385	895
675.20435	916
675.7149	941
676.2254	884
676.73584	897
677.24628	900
677.75671	933
678.26715	852
678.77753	939
679.28784	883
679.79822	895
680.30847	918
680.81879	868
681.32904	801
681.83923	860
682.34949	845
682.85968	859
683.36981	863
683.87994	851
684.39008	816
684.90015	858
685.41022	784
685.92023	811
686.43024	802
686.94025	794
687.4502	825
687.96014	715
688.47003	825
688.97992	767
689.48981	749
689.99963	733
690.50946	792
691.01923	723
691.52899	755
692.03876	745
692.54846	754
693.05817	786
693.56781	737
694.07745	718
694.58704	762
695.09662	728
695.6062	722
696.11572	711
696.62524	733
697.1347	721
697.64417	724
698.15363	697
698.66302	706
699.17242	718
699.68176	697
700.1911	666
700.70044	661
701.20972	678
701.71893	682
702.22815	684
702.73737	652
703.24652	670
703.75568	695
704.26483	649
704.77393	703
705.28302	660
705.79205	687
706.30103	656
706.81006	610
707.31903	639
707.82794	684
708.33685	627
708.84576	658
709.35461	636
709.86346	657
710.37225	638
710.88104	618
711.38977	573
711.8985	602
712.40723	614
712.91589	601
713.42456	611
713.93317	603
714.44177	631
714.95032	635
715.45886	607
715.96735	594
716.47583	597
716.98431	550
717.49274	569
718.00116	586
718.50952	584
719.01788	575
719.52618	593
720.03448	611
720.54272	588
721.05096	569
721.5592	572
722.06738	582
722.57556	553
723.08368	531
723.59174	538
724.09985	520
724.60791	589
725.11591	596
725.6239	573
726.13184	546
726.63977	566
727.14771	545
727.65558	553
728.16339	519
728.67126	527
729.17902	500
729.68683	525
730.19452	545
730.70227	532
731.2099	519
731.71759	536
732.22522	526
732.73279	525
733.24036	500
733.74792	520
734.25543	523
734.76288	508
735.27032	496
735.77777	511
736.28516	533
736.79254	499
737.29987	507
737.80719	510
738.31445	523
738.82172	466
739.32892	486
739.83612	488
740.34326	485
740.8504	500
741.35748	497
741.86456	502
742.37164	469
742.87866	485
743.38562	470
743.89258	454
744.39954	460
744.90643	480
745.41327	473
745.9201	493
746.42694	462
746.93372	452
747.44049	473
747.9472	460
748.45386	487
748.96057	464
749.46716	468
749.97375	452
750.48035	472
750.98688	447
751.49341	439
751.99988	443
752.50635	427
753.01276	431
753.51917	481
754.02551	453
754.53186	468
755.03815	422
755.54443	449
756.05066	411
756.55688	473
757.06305	439
757.56921	389
758.07532	423
758.58142	421
759.08746	423
759.59351	435
760.09949	446
760.60547	439
761.11139	425
761.61725	426
762.12317	428
762.62897	404
763.13483	433
763.64056	443
764.1463	409
764.65204	393
765.15771	417
765.66339	419
766.16901	421
766.67462	422
767.18018	417
767.68567	383
768.19116	416
768.69666	383
769.20209	398
769.70746	415
770.21283	394
770.7182	407
771.22351	393
771.72876	415
772.23401	417
772.73926	405
773.24445	382
773.74957	373
774.2547	375
774.75977	382
775.26483	402
775.76984	377
776.27484	398
776.77979	363
777.28473	398
777.78961	405
778.29449	382
778.79932	397
779.30408	380
779.80884	366
780.3136	392
780.8183	402
781.32294	379
781.82758	383
782.33215	366
782.83673	393
783.34131	378
783.84576	370
784.35028	373
784.85468	384
785.35907	380
785.86346	361
786.3678	373
786.87213	387
787.3764	377
787.88062	375
788.38483	379
788.88898	368
789.39313	383
789.89722	391
790.40131	356
790.90533	395
791.40936	364
791.91333	371
792.4173	378
792.9212	343
793.42505	368
793.92889	367
794.43268	369
794.93646	369
795.44019	371
795.94391	356
796.44757	359
796.95123	346
797.45483	368
797.95837	345
798.46191	348
798.96539	345
799.46887	374
799.97235	366
800.47571	355
800.97906	351
801.48242	355
801.98572	346
802.48895	356
802.99219	353
803.49536	341
803.99854	377
804.50165	366
805.00476	366
805.50781	339
806.01086	358
806.51379	353
807.01678	354
807.51971	323
808.02258	349
808.52539	349
809.02826	325
809.53101	336
810.03375	359
810.53644	348
811.03912	336
811.54175	325
812.04437	369
812.54694	356
813.04944	342
813.55194	336
814.05444	346
814.55682	333
815.05927	366
815.56158	353
816.0639	355
816.56622	331
817.06842	337
817.57068	355
818.07281	342
818.57495	334
819.07709	370
819.57916	345
820.08118	333
820.58319	337
821.08514	365
821.5871	350
822.08899	355
822.59082	332
823.09265	346
823.59442	350
824.09619	361
824.5979	328
825.09955	358
825.6012	354
826.10278	337
826.60437	346
827.1059	343
827.60736	324
828.10883	361
828.61023	339
829.11163	334
829.61298	339
830.11432	332
830.61554	324
831.11682	361
831.61798	355
832.11914	348
832.6203	355
833.1214	323
833.62244	336
834.12347	356
834.62445	326
835.12537	337
835.62628	302
836.12714	339
836.62799	345
837.12878	334
837.62952	307
838.13025	337
838.63092	324
839.13153	333
839.63214	334
840.13275	346
840.63324	315
841.13373	378
841.63422	347
842.13464	340
842.63501	338
843.13538	337
843.63568	365
844.13593	339
844.63617	339
845.13635	363
845.63647	340
846.1366	364
846.63672	339
847.13672	353
847.63672	354
848.13672	348
848.6366	353
849.13647	367
849.63635	338
850.13617	332
850.63593	339
851.13568	322
851.63538	330
852.13501	330
852.63464	355
853.13422	309
853.63373	349
854.13324	331
854.63275	346
855.13214	340
855.63153	340
856.13086	333
856.63019	343
857.12946	318
857.62866	342
858.12787	365
858.62701	347
859.12616	349
859.62524	334
860.12427	339
860.62323	327
861.12219	320
861.62109	319
862.12	349
862.61884	328
863.11761	359
863.61639	351
864.11511	338
864.61377	347
865.11243	331
865.61102	345
866.10962	338
866.60809	318
867.10663	359
867.60504	337
868.10345	357
868.60181	332
869.10016	345
869.59839	358
870.09668	389
870.59485	455
871.09302	549
871.59113	664
872.08923	677
872.58728	731
873.08527	786
873.58325	784
874.08118	853
874.57904	827
875.0769	894
875.57465	826
876.07245	844
876.57013	826
877.06781	856
877.56549	868
878.06305	907
878.56061	886
879.05817	806
879.5556	889
880.05304	850
880.55042	922
881.04779	874
881.5451	849
882.04236	912
882.53961	936
883.0368	938
883.53394	925
884.03107	947
884.52808	843
885.02515	879
