Date and Time:                Sat Oct 18 08:20:30.496 2025
Software Version:             4.30.30000.0
Temperature (C):              -90
Model:                        DU971P_UVB
Data Type:                    Counts
Acquisition Mode:             Single Scan
Trigger Mode:                 Internal
Exposure Time (secs):         30
Readout Mode:                 Full Vertical Binning
Horizontal binning:           2
Extended Dynamic Range:       off
Horizontally flipped:         false
Vertical Shift Speed (usecs): 9.68
Pixel Readout Rate (MHz):     3
Baseline Clamp:               ON
Clock Amplitude:              Normal
Output Amplifier:             Conventional
Serial Number:                20367
Pre-Amplifier Gain:           4x
Spurious Noise Filter Mode:   No Filter
Photon counted:               false
Data Averaging Filter Mode:   No Filter
SR193i:
Serial Number:                SR-2646
Wavelength (nm):              690
Grating Groove Density (l/mm):300
Grating Blaze:                500nm
Input Side Slit Width (um):   1000



478.32681	294
478.84332	300
479.35983	341
479.87631	349
480.39282	329
480.9093	340
481.42575	334
481.94223	341
482.45868	334
482.97513	329
483.49158	328
484.00803	340
484.52444	336
485.04086	337
485.55728	345
486.07367	335
486.59006	348
487.10645	328
487.62283	337
488.13919	316
488.65555	339
489.17191	345
489.68826	320
490.20459	336
490.72092	342
491.23724	347
491.75354	326
492.26984	345
492.78613	358
493.30243	383
493.8187	364
494.33496	337
494.85123	355
495.36746	321
495.8837	344
496.39993	350
496.91617	361
497.43237	380
497.94858	351
498.46478	351
498.98096	371
499.49713	350
500.01331	343
500.52945	379
501.04562	358
501.56174	365
502.07788	348
502.59399	343
503.11011	387
503.62622	367
504.1423	339
504.65839	375
505.17447	350
505.69052	347
506.20657	341
506.72263	362
507.23865	349
507.75467	343
508.27069	380
508.78668	363
509.30267	364
509.81866	348
510.33463	365
510.85059	358
511.36655	344
511.88248	344
512.39844	348
512.91437	366
513.43024	361
513.94617	350
514.46204	380
514.97791	342
515.49377	344
516.00964	365
516.52551	352
517.04132	368
517.55719	347
518.073	337
518.58881	342
519.10461	349
519.62036	363
520.13617	346
520.65192	351
521.16766	353
521.68341	348
522.1991	328
522.71484	352
523.23053	359
523.74622	353
524.2619	358
524.77759	334
525.29327	335
525.8089	347
526.32452	340
526.84015	374
527.35577	340
527.8714	361
528.38696	362
528.90259	355
529.41815	349
529.93372	350
530.44922	353
530.96478	342
531.48029	341
531.99579	357
532.51129	337
533.02679	337
533.5423	361
534.05774	344
534.57318	370
535.08862	329
535.60406	347
536.11945	340
536.63489	372
537.15027	349
537.66565	334
538.18097	341
538.69635	333
539.21167	355
539.72699	339
540.24231	330
540.75763	349
541.27289	356
541.78821	345
542.30347	335
542.81873	356
543.33392	344
543.84918	332
544.36438	349
544.87958	317
545.39478	327
545.90991	337
546.42511	338
546.94025	354
547.45538	341
547.97052	347
548.4856	326
549.00073	345
549.51581	332
550.03088	336
550.5459	329
551.06097	334
551.57599	336
552.091	338
552.60602	365
553.12097	321
553.63593	344
554.15094	357
554.66583	325
555.18079	340
555.69568	359
556.21063	351
556.72552	328
557.24036	339
557.75525	352
558.27008	351
558.78491	362
559.29974	341
559.81458	324
560.32935	344
560.84412	325
561.35889	321
561.87366	332
562.38837	364
562.90308	356
563.41779	343
563.9325	330
564.44714	334
564.96179	356
565.47644	343
565.99109	298
566.50574	306
567.02032	330
567.53491	335
568.0495	319
568.56403	352
569.07861	354
569.59314	360
570.1076	327
570.62213	346
571.1366	347
571.65106	343
572.16553	341
572.67999	325
573.1944	321
573.7088	337
574.22321	321
574.73755	344
575.25195	333
575.7663	350
576.28058	343
576.79492	345
577.3092	320
577.82349	329
578.33777	347
578.85205	338
579.36627	330
579.88049	348
580.39471	331
580.90887	341
581.42303	335
581.93719	328
582.45135	345
582.96545	343
583.47955	324
583.99365	326
584.50775	336
585.02179	326
585.53583	341
586.04987	334
586.5639	317
587.07788	337
587.59186	318
588.10583	341
588.61975	332
589.13373	364
589.64758	318
590.1615	309
590.67542	332
591.18927	337
591.70306	324
592.21692	338
592.73071	332
593.24451	323
593.7583	330
594.27209	328
594.78583	335
595.29956	325
595.81323	326
596.32697	321
596.84064	334
597.35425	334
597.86792	328
598.38153	305
598.89514	341
599.40875	341
599.9223	350
600.43585	329
600.9494	314
601.46289	336
601.97638	346
602.48987	336
603.00336	317
603.51678	351
604.03021	307
604.54364	334
605.05701	333
605.57043	348
606.08374	343
606.59711	333
607.11041	310
607.62372	329
608.13702	329
608.65027	328
609.16351	326
609.67676	331
610.19	319
610.70319	303
611.21637	327
611.72949	335
612.24268	354
612.75574	338
613.26886	306
613.78192	341
614.29504	329
614.80804	312
615.32111	315
615.83411	340
616.34711	328
616.86005	326
617.37299	327
617.88593	340
618.39886	320
618.91174	310
619.42462	295
619.9375	310
620.45032	320
620.96313	325
621.47595	321
621.98871	323
622.50146	331
623.01422	323
623.52692	312
624.03967	309
624.55231	320
625.065	322
625.57764	317
626.09027	348
626.60284	338
627.11542	339
627.62799	316
628.14056	320
628.65308	332
629.16559	333
629.6781	321
630.19055	346
630.703	314
631.21539	327
631.72784	331
632.24017	339
632.75256	291
633.26489	321
633.77722	334
634.28955	334
634.80182	311
635.31409	316
635.82635	326
636.33856	338
636.85077	327
637.36292	326
637.87512	308
638.38721	348
638.89935	336
639.41144	345
639.92352	314
640.43561	334
640.94763	329
641.45966	304
641.97162	321
642.48358	324
642.99554	311
643.50751	331
644.01941	315
644.53131	314
645.04315	314
645.55499	305
646.06683	324
646.57861	312
647.09045	343
647.60217	317
648.11395	338
648.62567	332
649.13733	306
649.64905	334
650.16064	344
650.6723	331
651.1839	330
651.6955	327
652.20709	321
652.71863	323
653.23016	342
653.74164	325
654.25311	330
654.76459	342
655.276	312
655.78741	343
656.29883	322
656.81018	323
657.32153	317
657.83289	329
658.34418	315
658.85547	344
659.3667	326
659.87793	333
660.38916	326
660.90033	321
661.4115	323
661.92267	317
662.43378	347
662.94489	331
663.45593	338
663.96698	327
664.47803	322
664.98907	345
665.50006	324
666.01099	332
666.52191	324
667.03284	326
667.54376	340
668.05463	333
668.56549	347
669.07629	302
669.5871	325
670.0979	314
670.60864	338
671.11938	320
671.63007	341
672.14075	321
672.65143	324
673.16205	345
673.67267	315
674.18329	309
674.69385	319
675.20435	329
675.7149	296
676.2254	331
676.73584	304
677.24628	326
677.75671	312
678.26715	322
678.77753	326
679.28784	325
679.79822	322
680.30847	317
680.81879	330
681.32904	320
681.83923	324
682.34949	324
682.85968	341
683.36981	342
683.87994	326
684.39008	326
684.90015	309
685.41022	319
685.92023	325
686.43024	331
686.94025	324
687.4502	314
687.96014	317
688.47003	322
688.97992	335
689.48981	304
689.99963	325
690.50946	302
691.01923	319
691.52899	324
692.03876	337
692.54846	314
693.05817	318
693.56781	324
694.07745	338
694.58704	310
695.09662	333
695.6062	330
696.11572	307
696.62524	334
697.1347	328
697.64417	345
698.15363	327
698.66302	319
699.17242	324
699.68176	328
700.1911	328
700.70044	331
701.20972	332
701.71893	317
702.22815	319
702.73737	325
703.24652	332
703.75568	324
704.26483	315
704.77393	319
705.28302	312
705.79205	300
706.30103	339
706.81006	325
707.31903	317
707.82794	320
708.33685	336
708.84576	328
709.35461	324
709.86346	303
710.37225	310
710.88104	306
711.38977	320
711.8985	322
712.40723	332
712.91589	313
713.42456	349
713.93317	327
714.44177	316
714.95032	296
715.45886	320
715.96735	340
716.47583	287
716.98431	323
717.49274	307
718.00116	314
718.50952	298
719.01788	314
719.52618	309
720.03448	314
720.54272	325
721.05096	325
721.5592	323
722.06738	338
722.57556	325
723.08368	314
723.59174	340
724.09985	323
724.60791	327
725.11591	343
725.6239	335
726.13184	323
726.63977	305
727.14771	325
727.65558	334
728.16339	324
728.67126	300
729.17902	315
729.68683	321
730.19452	336
730.70227	330
731.2099	335
731.71759	317
732.22522	335
732.73279	319
733.24036	332
733.74792	311
734.25543	303
734.76288	303
735.27032	315
735.77777	331
736.28516	326
736.79254	305
737.29987	310
737.80719	335
738.31445	314
738.82172	319
739.32892	322
739.83612	324
740.34326	342
740.8504	332
741.35748	321
741.86456	335
742.37164	325
742.87866	330
743.38562	315
743.89258	324
744.39954	314
744.90643	319
745.41327	303
745.9201	325
746.42694	319
746.93372	330
747.44049	328
747.9472	332
748.45386	337
748.96057	317
749.46716	307
749.97375	281
750.48035	312
750.98688	326
751.49341	336
751.99988	335
752.50635	316
753.01276	315
753.51917	310
754.02551	340
754.53186	309
755.03815	321
755.54443	319
756.05066	318
756.55688	303
757.06305	323
757.56921	317
758.07532	339
758.58142	339
759.08746	326
759.59351	306
760.09949	323
760.60547	318
761.11139	326
761.61725	338
762.12317	312
762.62897	336
763.13483	294
763.64056	318
764.1463	312
764.65204	313
765.15771	309
765.66339	312
766.16901	321
766.67462	320
767.18018	321
767.68567	333
768.19116	323
768.69666	328
769.20209	323
769.70746	317
770.21283	321
770.7182	294
771.22351	330
771.72876	319
772.23401	327
772.73926	320
773.24445	309
773.74957	304
774.2547	305
774.75977	317
775.26483	326
775.76984	362
776.27484	314
776.77979	326
777.28473	309
777.78961	334
778.29449	308
778.79932	295
779.30408	327
779.80884	300
780.3136	318
780.8183	324
781.32294	326
781.82758	316
782.33215	322
782.83673	314
783.34131	357
783.84576	327
784.35028	326
784.85468	319
785.35907	330
785.86346	314
786.3678	327
786.87213	331
787.3764	297
787.88062	334
788.38483	323
788.88898	322
789.39313	306
789.89722	315
790.40131	331
790.90533	319
791.40936	318
791.91333	321
792.4173	308
792.9212	318
793.42505	313
793.92889	315
794.43268	325
794.93646	314
795.44019	329
795.94391	309
796.44757	334
796.95123	326
797.45483	330
797.95837	328
798.46191	317
798.96539	333
799.46887	308
799.97235	319
800.47571	326
800.97906	333
801.48242	309
801.98572	311
802.48895	317
802.99219	323
803.49536	305
803.99854	297
804.50165	325
805.00476	310
805.50781	328
806.01086	340
806.51379	314
807.01678	338
807.51971	328
808.02258	317
808.52539	316
809.02826	304
809.53101	305
810.03375	335
810.53644	314
811.03912	304
811.54175	329
812.04437	314
812.54694	325
813.04944	309
813.55194	325
814.05444	324
814.55682	316
815.05927	312
815.56158	327
816.0639	311
816.56622	330
817.06842	314
817.57068	326
818.07281	319
818.57495	301
819.07709	335
819.57916	334
820.08118	306
820.58319	322
821.08514	312
821.5871	311
822.08899	319
822.59082	321
823.09265	328
823.59442	327
824.09619	321
824.5979	314
825.09955	308
825.6012	314
826.10278	324
826.60437	322
827.1059	327
827.60736	312
828.10883	316
828.61023	306
829.11163	331
829.61298	321
830.11432	332
830.61554	328
831.11682	310
831.61798	328
832.11914	324
832.6203	306
833.1214	324
833.62244	321
834.12347	327
834.62445	307
835.12537	316
835.62628	318
836.12714	323
836.62799	303
837.12878	308
837.62952	331
838.13025	333
838.63092	314
839.13153	323
839.63214	318
840.13275	320
840.63324	324
841.13373	306
841.63422	321
842.13464	301
842.63501	336
843.13538	308
843.63568	321
844.13593	340
844.63617	321
845.13635	299
845.63647	321
846.1366	318
846.63672	331
847.13672	345
847.63672	314
848.13672	328
848.6366	314
849.13647	326
849.63635	320
850.13617	320
850.63593	296
851.13568	313
851.63538	309
852.13501	326
852.63464	311
853.13422	313
853.63373	312
854.13324	298
854.63275	325
855.13214	338
855.63153	331
856.13086	311
856.63019	319
857.12946	347
857.62866	328
858.12787	313
858.62701	305
859.12616	327
859.62524	333
860.12427	322
860.62323	325
861.12219	324
861.62109	316
862.12	309
862.61884	314
863.11761	312
863.61639	310
864.11511	319
864.61377	326
865.11243	308
865.61102	309
866.10962	293
866.60809	324
867.10663	330
867.60504	305
868.10345	325
868.60181	318
869.10016	327
869.59839	349
870.09668	336
870.59485	355
871.09302	365
871.59113	425
872.08923	437
872.58728	439
873.08527	479
873.58325	432
874.08118	460
874.57904	462
875.0769	476
875.57465	430
876.07245	446
876.57013	456
877.06781	475
877.56549	428
878.06305	472
878.56061	476
879.05817	485
879.5556	453
880.05304	472
880.55042	445
881.04779	495
881.5451	518
882.04236	496
882.53961	455
883.0368	497
883.53394	497
884.03107	517
884.52808	465
885.02515	486
