Date and Time:                Sat Oct 18 08:21:52.134 2025
Software Version:             4.30.30000.0
Temperature (C):              -90
Model:                        DU971P_UVB
Data Type:                    Counts
Acquisition Mode:             Single Scan
Trigger Mode:                 Internal
Exposure Time (secs):         30
Readout Mode:                 Full Vertical Binning
Horizontal binning:           2
Extended Dynamic Range:       off
Horizontally flipped:         false
Vertical Shift Speed (usecs): 9.68
Pixel Readout Rate (MHz):     3
Baseline Clamp:               ON
Clock Amplitude:              Normal
Output Amplifier:             Conventional
Serial Number:                20367
Pre-Amplifier Gain:           4x
Spurious Noise Filter Mode:   No Filter
Photon counted:               false
Data Averaging Filter Mode:   No Filter
SR193i:
Serial Number:                SR-2646
Wavelength (nm):              690
Grating Groove Density (l/mm):300
Grating Blaze:                500nm
Input Side Slit Width (um):   1000



478.32681	276
478.84332	316
479.35983	318
479.87631	331
480.39282	315
480.9093	320
481.42575	324
481.94223	333
482.45868	325
482.97513	328
483.49158	327
484.00803	342
484.52444	317
485.04086	352
485.55728	324
486.07367	350
486.59006	345
487.10645	327
487.62283	329
488.13919	340
488.65555	343
489.17191	320
489.68826	350
490.20459	349
490.72092	332
491.23724	354
491.75354	329
492.26984	350
492.78613	340
493.30243	347
493.8187	343
494.33496	327
494.85123	348
495.36746	343
495.8837	345
496.39993	353
496.91617	358
497.43237	338
497.94858	339
498.46478	367
498.98096	335
499.49713	337
500.01331	327
500.52945	332
501.04562	359
501.56174	351
502.07788	349
502.59399	350
503.11011	368
503.62622	357
504.1423	330
504.65839	346
505.17447	344
505.69052	367
506.20657	353
506.72263	349
507.23865	350
507.75467	364
508.27069	335
508.78668	328
509.30267	359
509.81866	354
510.33463	361
510.85059	339
511.36655	343
511.88248	348
512.39844	331
512.91437	341
513.43024	362
513.94617	366
514.46204	342
514.97791	357
515.49377	331
516.00964	345
516.52551	371
517.04132	313
517.55719	360
518.073	372
518.58881	356
519.10461	349
519.62036	336
520.13617	359
520.65192	368
521.16766	339
521.68341	361
522.1991	349
522.71484	358
523.23053	355
523.74622	344
524.2619	352
524.77759	352
525.29327	349
525.8089	332
526.32452	359
526.84015	354
527.35577	339
527.8714	372
528.38696	358
528.90259	341
529.41815	326
529.93372	364
530.44922	322
530.96478	359
531.48029	349
531.99579	368
532.51129	327
533.02679	357
533.5423	329
534.05774	348
534.57318	368
535.08862	356
535.60406	336
536.11945	344
536.63489	361
537.15027	323
537.66565	342
538.18097	315
538.69635	355
539.21167	347
539.72699	343
540.24231	340
540.75763	327
541.27289	331
541.78821	352
542.30347	321
542.81873	337
543.33392	329
543.84918	341
544.36438	350
544.87958	338
545.39478	332
545.90991	337
546.42511	347
546.94025	347
547.45538	350
547.97052	350
548.4856	333
549.00073	351
549.51581	346
550.03088	341
550.5459	343
551.06097	353
551.57599	335
552.091	328
552.60602	340
553.12097	377
553.63593	350
554.15094	341
554.66583	321
555.18079	352
555.69568	353
556.21063	323
556.72552	328
557.24036	334
557.75525	366
558.27008	351
558.78491	318
559.29974	319
559.81458	321
560.32935	346
560.84412	320
561.35889	308
561.87366	341
562.38837	323
562.90308	329
563.41779	353
563.9325	326
564.44714	345
564.96179	336
565.47644	345
565.99109	333
566.50574	329
567.02032	333
567.53491	335
568.0495	362
568.56403	325
569.07861	304
569.59314	330
570.1076	344
570.62213	368
571.1366	343
571.65106	335
572.16553	345
572.67999	343
573.1944	333
573.7088	347
574.22321	331
574.73755	360
575.25195	311
575.7663	336
576.28058	313
576.79492	310
577.3092	298
577.82349	345
578.33777	340
578.85205	342
579.36627	319
579.88049	336
580.39471	339
580.90887	332
581.42303	323
581.93719	318
582.45135	323
582.96545	341
583.47955	343
583.99365	344
584.50775	348
585.02179	317
585.53583	345
586.04987	312
586.5639	337
587.07788	325
587.59186	355
588.10583	335
588.61975	350
589.13373	315
589.64758	311
590.1615	312
590.67542	340
591.18927	321
591.70306	323
592.21692	328
592.73071	290
593.24451	335
593.7583	348
594.27209	340
594.78583	354
595.29956	337
595.81323	314
596.32697	331
596.84064	326
597.35425	312
597.86792	352
598.38153	326
598.89514	350
599.40875	313
599.9223	313
600.43585	319
600.9494	318
601.46289	337
601.97638	313
602.48987	338
603.00336	325
603.51678	322
604.03021	334
604.54364	313
605.05701	322
605.57043	335
606.08374	331
606.59711	329
607.11041	327
607.62372	313
608.13702	330
608.65027	310
609.16351	330
609.67676	326
610.19	328
610.70319	325
611.21637	319
611.72949	357
612.24268	324
612.75574	347
613.26886	333
613.78192	323
614.29504	328
614.80804	297
615.32111	327
615.83411	312
616.34711	307
616.86005	316
617.37299	314
617.88593	316
618.39886	318
618.91174	325
619.42462	314
619.9375	331
620.45032	312
620.96313	339
621.47595	313
621.98871	317
622.50146	323
623.01422	340
623.52692	344
624.03967	316
624.55231	329
625.065	328
625.57764	336
626.09027	325
626.60284	318
627.11542	332
627.62799	318
628.14056	328
628.65308	340
629.16559	321
629.6781	320
630.19055	337
630.703	322
631.21539	326
631.72784	331
632.24017	335
632.75256	330
633.26489	326
633.77722	326
634.28955	323
634.80182	321
635.31409	345
635.82635	311
636.33856	329
636.85077	311
637.36292	315
637.87512	318
638.38721	334
638.89935	332
639.41144	322
639.92352	332
640.43561	326
640.94763	332
641.45966	331
641.97162	326
642.48358	319
642.99554	317
643.50751	328
644.01941	331
644.53131	348
645.04315	319
645.55499	299
646.06683	316
646.57861	321
647.09045	327
647.60217	333
648.11395	323
648.62567	329
649.13733	332
649.64905	325
650.16064	323
650.6723	328
651.1839	342
651.6955	316
652.20709	335
652.71863	344
653.23016	327
653.74164	321
654.25311	345
654.76459	328
655.276	326
655.78741	334
656.29883	322
656.81018	317
657.32153	330
657.83289	323
658.34418	316
658.85547	342
659.3667	336
659.87793	308
660.38916	317
660.90033	336
661.4115	317
661.92267	323
662.43378	342
662.94489	317
663.45593	350
663.96698	305
664.47803	300
664.98907	306
665.50006	334
666.01099	330
666.52191	344
667.03284	306
667.54376	310
668.05463	329
668.56549	330
669.07629	334
669.5871	318
670.0979	315
670.60864	315
671.11938	327
671.63007	331
672.14075	302
672.65143	326
673.16205	322
673.67267	310
674.18329	326
674.69385	327
675.20435	321
675.7149	330
676.2254	325
676.73584	313
677.24628	326
677.75671	321
678.26715	325
678.77753	332
679.28784	334
679.79822	316
680.30847	329
680.81879	344
681.32904	323
681.83923	314
682.34949	329
682.85968	332
683.36981	337
683.87994	314
684.39008	334
684.90015	331
685.41022	326
685.92023	329
686.43024	326
686.94025	340
687.4502	326
687.96014	309
688.47003	329
688.97992	325
689.48981	321
689.99963	318
690.50946	303
691.01923	327
691.52899	308
692.03876	309
692.54846	334
693.05817	320
693.56781	329
694.07745	327
694.58704	333
695.09662	297
695.6062	312
696.11572	316
696.62524	328
697.1347	319
697.64417	319
698.15363	317
698.66302	322
699.17242	310
699.68176	326
700.1911	323
700.70044	312
701.20972	300
701.71893	307
702.22815	321
702.73737	333
703.24652	333
703.75568	326
704.26483	309
704.77393	317
705.28302	317
705.79205	303
706.30103	333
706.81006	299
707.31903	308
707.82794	334
708.33685	337
708.84576	333
709.35461	307
709.86346	318
710.37225	308
710.88104	314
711.38977	311
711.8985	312
712.40723	324
712.91589	328
713.42456	303
713.93317	310
714.44177	312
714.95032	312
715.45886	331
715.96735	313
716.47583	330
716.98431	338
717.49274	319
718.00116	310
718.50952	318
719.01788	322
719.52618	320
720.03448	314
720.54272	321
721.05096	314
721.5592	300
722.06738	313
722.57556	326
723.08368	315
723.59174	307
724.09985	311
724.60791	318
725.11591	320
725.6239	320
726.13184	306
726.63977	328
727.14771	313
727.65558	328
728.16339	309
728.67126	337
729.17902	330
729.68683	318
730.19452	303
730.70227	318
731.2099	302
731.71759	332
732.22522	317
732.73279	300
733.24036	320
733.74792	322
734.25543	314
734.76288	321
735.27032	303
735.77777	323
736.28516	296
736.79254	316
737.29987	337
737.80719	318
738.31445	309
738.82172	327
739.32892	305
739.83612	335
740.34326	308
740.8504	301
741.35748	315
741.86456	321
742.37164	318
742.87866	295
743.38562	331
743.89258	324
744.39954	317
744.90643	301
745.41327	304
745.9201	334
746.42694	308
746.93372	313
747.44049	342
747.9472	335
748.45386	314
748.96057	312
749.46716	312
749.97375	296
750.48035	327
750.98688	309
751.49341	307
751.99988	328
752.50635	315
753.01276	309
753.51917	335
754.02551	312
754.53186	305
755.03815	335
755.54443	323
756.05066	321
756.55688	332
757.06305	323
757.56921	311
758.07532	331
758.58142	328
759.08746	329
759.59351	327
760.09949	331
760.60547	312
761.11139	317
761.61725	334
762.12317	316
762.62897	312
763.13483	306
763.64056	320
764.1463	297
764.65204	308
765.15771	322
765.66339	308
766.16901	322
766.67462	315
767.18018	329
767.68567	328
768.19116	315
768.69666	311
769.20209	325
769.70746	326
770.21283	323
770.7182	316
771.22351	310
771.72876	298
772.23401	318
772.73926	318
773.24445	312
773.74957	319
774.2547	323
774.75977	328
775.26483	306
775.76984	303
776.27484	321
776.77979	319
777.28473	325
777.78961	309
778.29449	306
778.79932	334
779.30408	334
779.80884	307
780.3136	310
780.8183	324
781.32294	336
781.82758	321
782.33215	330
782.83673	298
783.34131	322
783.84576	316
784.35028	318
784.85468	322
785.35907	320
785.86346	322
786.3678	312
786.87213	314
787.3764	312
787.88062	313
788.38483	298
788.88898	292
789.39313	312
789.89722	293
790.40131	302
790.90533	305
791.40936	316
791.91333	300
792.4173	326
792.9212	307
793.42505	308
793.92889	311
794.43268	283
794.93646	309
795.44019	312
795.94391	327
796.44757	310
796.95123	331
797.45483	324
797.95837	317
798.46191	323
798.96539	307
799.46887	305
799.97235	331
800.47571	315
800.97906	310
801.48242	318
801.98572	324
802.48895	337
802.99219	312
803.49536	303
803.99854	315
804.50165	318
805.00476	298
805.50781	312
806.01086	314
806.51379	308
807.01678	302
807.51971	311
808.02258	314
808.52539	328
809.02826	316
809.53101	332
810.03375	314
810.53644	307
811.03912	337
811.54175	317
812.04437	324
812.54694	330
813.04944	317
813.55194	326
814.05444	315
814.55682	321
815.05927	346
815.56158	322
816.0639	318
816.56622	296
817.06842	322
817.57068	326
818.07281	310
818.57495	307
819.07709	334
819.57916	305
820.08118	316
820.58319	322
821.08514	293
821.5871	334
822.08899	353
822.59082	330
823.09265	309
823.59442	312
824.09619	311
824.5979	332
825.09955	301
825.6012	319
826.10278	324
826.60437	339
827.1059	310
827.60736	329
828.10883	314
828.61023	333
829.11163	323
829.61298	311
830.11432	325
830.61554	309
831.11682	301
831.61798	318
832.11914	323
832.6203	320
833.1214	311
833.62244	310
834.12347	320
834.62445	323
835.12537	332
835.62628	332
836.12714	308
836.62799	358
837.12878	314
837.62952	315
838.13025	302
838.63092	285
839.13153	306
839.63214	331
840.13275	320
840.63324	330
841.13373	335
841.63422	314
842.13464	312
842.63501	324
843.13538	310
843.63568	313
844.13593	301
844.63617	350
845.13635	316
845.63647	295
846.1366	318
846.63672	325
847.13672	311
847.63672	322
848.13672	324
848.6366	323
849.13647	310
849.63635	326
850.13617	329
850.63593	329
851.13568	316
851.63538	330
852.13501	317
852.63464	328
853.13422	314
853.63373	308
854.13324	325
854.63275	323
855.13214	332
855.63153	311
856.13086	320
856.63019	337
857.12946	306
857.62866	322
858.12787	330
858.62701	328
859.12616	344
859.62524	332
860.12427	299
860.62323	321
861.12219	324
861.62109	319
862.12	317
862.61884	305
863.11761	323
863.61639	310
864.11511	319
864.61377	323
865.11243	340
865.61102	337
866.10962	317
866.60809	327
867.10663	326
867.60504	319
868.10345	320
868.60181	318
869.10016	316
869.59839	335
870.09668	329
870.59485	341
871.09302	370
871.59113	423
872.08923	427
872.58728	426
873.08527	453
873.58325	458
874.08118	431
874.57904	435
875.0769	479
875.57465	437
876.07245	486
876.57013	481
877.06781	476
877.56549	474
878.06305	438
878.56061	513
879.05817	479
879.5556	506
880.05304	451
880.55042	485
881.04779	504
881.5451	515
882.04236	444
882.53961	502
883.0368	465
883.53394	494
884.03107	495
884.52808	474
885.02515	505
