Date and Time:                Wed Oct 22 09:28:57.045 2025
Software Version:             4.30.30000.0
Temperature (C):              -90
Model:                        DU971P_UVB
Data Type:                    Counts
Acquisition Mode:             Single Scan
Trigger Mode:                 Internal
Exposure Time (secs):         30
Readout Mode:                 Full Vertical Binning
Horizontal binning:           2
Extended Dynamic Range:       off
Horizontally flipped:         false
Vertical Shift Speed (usecs): 9.68
Pixel Readout Rate (MHz):     3
Baseline Clamp:               ON
Clock Amplitude:              Normal
Output Amplifier:             Conventional
Serial Number:                20367
Pre-Amplifier Gain:           4x
Spurious Noise Filter Mode:   No Filter
Photon counted:               false
Data Averaging Filter Mode:   No Filter
SR193i:
Serial Number:                SR-2646
Wavelength (nm):              690
Grating Groove Density (l/mm):300
Grating Blaze:                500nm
Input Side Slit Width (um):   1000



478.32681	264
478.84332	313
479.35983	332
479.87631	298
480.39282	338
480.9093	335
481.42575	346
481.94223	324
482.45868	318
482.97513	316
483.49158	344
484.00803	355
484.52444	351
485.04086	348
485.55728	320
486.07367	323
486.59006	337
487.10645	345
487.62283	327
488.13919	327
488.65555	370
489.17191	325
489.68826	339
490.20459	342
490.72092	322
491.23724	375
491.75354	348
492.26984	350
492.78613	319
493.30243	330
493.8187	357
494.33496	333
494.85123	357
495.36746	349
495.8837	350
496.39993	349
496.91617	353
497.43237	346
497.94858	361
498.46478	334
498.98096	373
499.49713	371
500.01331	358
500.52945	361
501.04562	321
501.56174	355
502.07788	358
502.59399	349
503.11011	355
503.62622	353
504.1423	359
504.65839	356
505.17447	342
505.69052	360
506.20657	340
506.72263	356
507.23865	374
507.75467	350
508.27069	333
508.78668	357
509.30267	356
509.81866	330
510.33463	351
510.85059	361
511.36655	341
511.88248	354
512.39844	342
512.91437	362
513.43024	353
513.94617	350
514.46204	364
514.97791	361
515.49377	363
516.00964	320
516.52551	361
517.04132	338
517.55719	372
518.073	354
518.58881	360
519.10461	371
519.62036	360
520.13617	343
520.65192	363
521.16766	366
521.68341	354
522.1991	371
522.71484	334
523.23053	367
523.74622	335
524.2619	373
524.77759	358
525.29327	348
525.8089	353
526.32452	360
526.84015	366
527.35577	354
527.8714	341
528.38696	345
528.90259	351
529.41815	1460
529.93372	379
530.44922	315
530.96478	368
531.48029	367
531.99579	359
532.51129	363
533.02679	341
533.5423	350
534.05774	375
534.57318	363
535.08862	337
535.60406	362
536.11945	373
536.63489	357
537.15027	377
537.66565	369
538.18097	333
538.69635	353
539.21167	368
539.72699	338
540.24231	332
540.75763	325
541.27289	364
541.78821	359
542.30347	354
542.81873	338
543.33392	344
543.84918	359
544.36438	368
544.87958	351
545.39478	336
545.90991	357
546.42511	346
546.94025	352
547.45538	353
547.97052	369
548.4856	340
549.00073	354
549.51581	330
550.03088	360
550.5459	358
551.06097	357
551.57599	346
552.091	355
552.60602	341
553.12097	333
553.63593	347
554.15094	339
554.66583	342
555.18079	349
555.69568	333
556.21063	346
556.72552	330
557.24036	354
557.75525	328
558.27008	341
558.78491	364
559.29974	335
559.81458	348
560.32935	342
560.84412	330
561.35889	347
561.87366	352
562.38837	313
562.90308	320
563.41779	345
563.9325	342
564.44714	331
564.96179	313
565.47644	342
565.99109	334
566.50574	326
567.02032	333
567.53491	340
568.0495	349
568.56403	321
569.07861	325
569.59314	354
570.1076	333
570.62213	321
571.1366	327
571.65106	331
572.16553	344
572.67999	329
573.1944	344
573.7088	323
574.22321	331
574.73755	345
575.25195	343
575.7663	358
576.28058	345
576.79492	355
577.3092	329
577.82349	323
578.33777	339
578.85205	346
579.36627	350
579.88049	359
580.39471	325
580.90887	343
581.42303	351
581.93719	349
582.45135	337
582.96545	319
583.47955	333
583.99365	335
584.50775	333
585.02179	347
585.53583	333
586.04987	350
586.5639	316
587.07788	340
587.59186	338
588.10583	327
588.61975	324
589.13373	336
589.64758	334
590.1615	329
590.67542	318
591.18927	339
591.70306	350
592.21692	338
592.73071	340
593.24451	323
593.7583	333
594.27209	337
594.78583	317
595.29956	346
595.81323	345
596.32697	330
596.84064	331
597.35425	317
597.86792	332
598.38153	323
598.89514	355
599.40875	327
599.9223	345
600.43585	345
600.9494	338
601.46289	325
601.97638	341
602.48987	331
603.00336	320
603.51678	297
604.03021	342
604.54364	338
605.05701	331
605.57043	329
606.08374	347
606.59711	327
607.11041	342
607.62372	336
608.13702	336
608.65027	315
609.16351	347
609.67676	356
610.19	322
610.70319	332
611.21637	326
611.72949	330
612.24268	329
612.75574	327
613.26886	353
613.78192	319
614.29504	342
614.80804	331
615.32111	326
615.83411	325
616.34711	331
616.86005	334
617.37299	335
617.88593	318
618.39886	319
618.91174	336
619.42462	335
619.9375	326
620.45032	332
620.96313	348
621.47595	342
621.98871	318
622.50146	334
623.01422	327
623.52692	333
624.03967	327
624.55231	327
625.065	333
625.57764	324
626.09027	322
626.60284	344
627.11542	325
627.62799	328
628.14056	315
628.65308	322
629.16559	318
629.6781	326
630.19055	319
630.703	324
631.21539	325
631.72784	318
632.24017	340
632.75256	320
633.26489	330
633.77722	314
634.28955	324
634.80182	317
635.31409	329
635.82635	314
636.33856	360
636.85077	314
637.36292	330
637.87512	351
638.38721	326
638.89935	325
639.41144	324
639.92352	337
640.43561	328
640.94763	324
641.45966	340
641.97162	344
642.48358	337
642.99554	316
643.50751	327
644.01941	329
644.53131	339
645.04315	338
645.55499	335
646.06683	326
646.57861	320
647.09045	314
647.60217	327
648.11395	351
648.62567	316
649.13733	322
649.64905	314
650.16064	339
650.6723	356
651.1839	333
651.6955	331
652.20709	324
652.71863	335
653.23016	306
653.74164	312
654.25311	320
654.76459	334
655.276	323
655.78741	337
656.29883	324
656.81018	323
657.32153	307
657.83289	339
658.34418	348
658.85547	332
659.3667	321
659.87793	327
660.38916	326
660.90033	309
661.4115	320
661.92267	331
662.43378	316
662.94489	340
663.45593	314
663.96698	350
664.47803	334
664.98907	330
665.50006	339
666.01099	318
666.52191	341
667.03284	322
667.54376	348
668.05463	310
668.56549	337
669.07629	304
669.5871	335
670.0979	299
670.60864	318
671.11938	323
671.63007	323
672.14075	340
672.65143	301
673.16205	330
673.67267	303
674.18329	332
674.69385	329
675.20435	300
675.7149	312
676.2254	319
676.73584	291
677.24628	332
677.75671	318
678.26715	345
678.77753	322
679.28784	340
679.79822	355
680.30847	345
680.81879	324
681.32904	322
681.83923	331
682.34949	346
682.85968	303
683.36981	336
683.87994	339
684.39008	349
684.90015	315
685.41022	334
685.92023	296
686.43024	319
686.94025	308
687.4502	302
687.96014	319
688.47003	310
688.97992	317
689.48981	327
689.99963	310
690.50946	324
691.01923	340
691.52899	322
692.03876	336
692.54846	313
693.05817	325
693.56781	323
694.07745	337
694.58704	296
695.09662	325
695.6062	342
696.11572	319
696.62524	309
697.1347	345
697.64417	331
698.15363	311
698.66302	325
699.17242	338
699.68176	329
700.1911	314
700.70044	304
701.20972	344
701.71893	325
702.22815	328
702.73737	1605
703.24652	344
703.75568	311
704.26483	317
704.77393	299
705.28302	342
705.79205	311
706.30103	330
706.81006	337
707.31903	345
707.82794	343
708.33685	323
708.84576	332
709.35461	291
709.86346	311
710.37225	315
710.88104	321
711.38977	305
711.8985	325
712.40723	315
712.91589	330
713.42456	302
713.93317	316
714.44177	315
714.95032	320
715.45886	326
715.96735	317
716.47583	304
716.98431	326
717.49274	301
718.00116	304
718.50952	307
719.01788	333
719.52618	335
720.03448	296
720.54272	340
721.05096	330
721.5592	314
722.06738	324
722.57556	318
723.08368	318
723.59174	336
724.09985	321
724.60791	326
725.11591	311
725.6239	305
726.13184	317
726.63977	315
727.14771	325
727.65558	319
728.16339	308
728.67126	302
729.17902	313
729.68683	301
730.19452	328
730.70227	322
731.2099	343
731.71759	293
732.22522	324
732.73279	328
733.24036	349
733.74792	329
734.25543	299
734.76288	329
735.27032	322
735.77777	338
736.28516	322
736.79254	312
737.29987	305
737.80719	295
738.31445	316
738.82172	307
739.32892	322
739.83612	322
740.34326	318
740.8504	328
741.35748	340
741.86456	322
742.37164	334
742.87866	324
743.38562	340
743.89258	317
744.39954	345
744.90643	318
745.41327	330
745.9201	327
746.42694	312
746.93372	303
747.44049	311
747.9472	333
748.45386	338
748.96057	308
749.46716	306
749.97375	342
750.48035	326
750.98688	315
751.49341	305
751.99988	290
752.50635	328
753.01276	297
753.51917	317
754.02551	311
754.53186	327
755.03815	302
755.54443	336
756.05066	326
756.55688	328
757.06305	326
757.56921	321
758.07532	319
758.58142	321
759.08746	321
759.59351	338
760.09949	306
760.60547	317
761.11139	316
761.61725	305
762.12317	313
762.62897	319
763.13483	335
763.64056	311
764.1463	320
764.65204	329
765.15771	319
765.66339	334
766.16901	300
766.67462	319
767.18018	325
767.68567	323
768.19116	317
768.69666	312
769.20209	336
769.70746	329
770.21283	307
770.7182	308
771.22351	321
771.72876	332
772.23401	298
772.73926	327
773.24445	326
773.74957	289
774.2547	342
774.75977	323
775.26483	320
775.76984	304
776.27484	308
776.77979	304
777.28473	313
777.78961	323
778.29449	324
778.79932	318
779.30408	334
779.80884	328
780.3136	338
780.8183	311
781.32294	307
781.82758	313
782.33215	350
782.83673	325
783.34131	304
783.84576	337
784.35028	333
784.85468	321
785.35907	294
785.86346	338
786.3678	316
786.87213	329
787.3764	322
787.88062	318
788.38483	317
788.88898	332
789.39313	304
789.89722	319
790.40131	322
790.90533	304
791.40936	300
791.91333	335
792.4173	307
792.9212	324
793.42505	311
793.92889	330
794.43268	330
794.93646	322
795.44019	316
795.94391	306
796.44757	327
796.95123	322
797.45483	323
797.95837	336
798.46191	337
798.96539	319
799.46887	334
799.97235	307
800.47571	324
800.97906	331
801.48242	307
801.98572	313
802.48895	334
802.99219	303
803.49536	331
803.99854	338
804.50165	328
805.00476	328
805.50781	326
806.01086	322
806.51379	332
807.01678	322
807.51971	340
808.02258	313
808.52539	333
809.02826	316
809.53101	328
810.03375	326
810.53644	318
811.03912	340
811.54175	303
812.04437	329
812.54694	353
813.04944	330
813.55194	306
814.05444	329
814.55682	320
815.05927	317
815.56158	321
816.0639	318
816.56622	328
817.06842	311
817.57068	319
818.07281	321
818.57495	318
819.07709	302
819.57916	297
820.08118	302
820.58319	324
821.08514	328
821.5871	294
822.08899	330
822.59082	334
823.09265	323
823.59442	320
824.09619	327
824.5979	329
825.09955	308
825.6012	312
826.10278	315
826.60437	325
827.1059	337
827.60736	316
828.10883	337
828.61023	323
829.11163	316
829.61298	308
830.11432	314
830.61554	327
831.11682	286
831.61798	332
832.11914	340
832.6203	318
833.1214	329
833.62244	318
834.12347	323
834.62445	317
835.12537	300
835.62628	321
836.12714	316
836.62799	328
837.12878	318
837.62952	341
838.13025	324
838.63092	339
839.13153	341
839.63214	319
840.13275	317
840.63324	323
841.13373	305
841.63422	329
842.13464	313
842.63501	323
843.13538	322
843.63568	326
844.13593	312
844.63617	327
845.13635	305
845.63647	328
846.1366	327
846.63672	292
847.13672	312
847.63672	313
848.13672	316
848.6366	329
849.13647	339
849.63635	343
850.13617	339
850.63593	339
851.13568	290
851.63538	333
852.13501	317
852.63464	328
853.13422	334
853.63373	309
854.13324	305
854.63275	312
855.13214	326
855.63153	302
856.13086	336
856.63019	322
857.12946	334
857.62866	305
858.12787	326
858.62701	310
859.12616	317
859.62524	314
860.12427	335
860.62323	331
861.12219	304
861.62109	301
862.12	310
862.61884	331
863.11761	325
863.61639	329
864.11511	317
864.61377	326
865.11243	329
865.61102	316
866.10962	334
866.60809	335
867.10663	337
867.60504	333
868.10345	299
868.60181	311
869.10016	316
869.59839	315
870.09668	316
870.59485	334
871.09302	375
871.59113	386
872.08923	412
872.58728	390
873.08527	426
873.58325	432
874.08118	406
874.57904	426
875.0769	434
875.57465	443
876.07245	429
876.57013	446
877.06781	416
877.56549	424
878.06305	469
878.56061	467
879.05817	461
879.5556	443
880.05304	456
880.55042	427
881.04779	446
881.5451	461
882.04236	501
882.53961	468
883.0368	454
883.53394	468
884.03107	473
884.52808	469
885.02515	457
