Date and Time:                Sat Oct 18 09:24:36.837 2025
Software Version:             4.30.30000.0
Unstabilized Temperature (C): -87.684
Model:                        DU971P_UVB
Data Type:                    Counts
Acquisition Mode:             Single Scan
Trigger Mode:                 Internal
Exposure Time (secs):         30
Readout Mode:                 Full Vertical Binning
Horizontal binning:           2
Extended Dynamic Range:       off
Horizontally flipped:         false
Vertical Shift Speed (usecs): 9.68
Pixel Readout Rate (MHz):     3
Baseline Clamp:               ON
Clock Amplitude:              Normal
Output Amplifier:             Conventional
Serial Number:                20367
Pre-Amplifier Gain:           4x
Spurious Noise Filter Mode:   No Filter
Photon counted:               false
Data Averaging Filter Mode:   No Filter
SR193i:
Serial Number:                SR-2646
Wavelength (nm):              690
Grating Groove Density (l/mm):300
Grating Blaze:                500nm
Input Side Slit Width (um):   1000



478.32681	268
478.84332	315
479.35983	325
479.87631	329
480.39282	335
480.9093	301
481.42575	309
481.94223	312
482.45868	322
482.97513	303
483.49158	317
484.00803	304
484.52444	321
485.04086	306
485.55728	324
486.07367	315
486.59006	329
487.10645	313
487.62283	331
488.13919	322
488.65555	317
489.17191	318
489.68826	318
490.20459	315
490.72092	321
491.23724	330
491.75354	322
492.26984	308
492.78613	329
493.30243	334
493.8187	308
494.33496	341
494.85123	344
495.36746	325
495.8837	296
496.39993	310
496.91617	328
497.43237	305
497.94858	306
498.46478	4385
498.98096	2206
499.49713	298
500.01331	315
500.52945	316
501.04562	336
501.56174	327
502.07788	313
502.59399	320
503.11011	316
503.62622	320
504.1423	328
504.65839	315
505.17447	313
505.69052	321
506.20657	324
506.72263	317
507.23865	328
507.75467	316
508.27069	308
508.78668	331
509.30267	337
509.81866	323
510.33463	309
510.85059	311
511.36655	326
511.88248	305
512.39844	325
512.91437	317
513.43024	321
513.94617	303
514.46204	353
514.97791	326
515.49377	324
516.00964	318
516.52551	338
517.04132	340
517.55719	308
518.073	322
518.58881	312
519.10461	315
519.62036	318
520.13617	308
520.65192	329
521.16766	317
521.68341	342
522.1991	320
522.71484	322
523.23053	320
523.74622	320
524.2619	328
524.77759	349
525.29327	304
525.8089	332
526.32452	299
526.84015	325
527.35577	318
527.8714	311
528.38696	313
528.90259	329
529.41815	316
529.93372	334
530.44922	323
530.96478	331
531.48029	299
531.99579	320
532.51129	324
533.02679	319
533.5423	320
534.05774	342
534.57318	325
535.08862	340
535.60406	337
536.11945	329
536.63489	309
537.15027	292
537.66565	309
538.18097	318
538.69635	311
539.21167	328
539.72699	318
540.24231	308
540.75763	318
541.27289	339
541.78821	339
542.30347	320
542.81873	346
543.33392	309
543.84918	289
544.36438	334
544.87958	325
545.39478	314
545.90991	317
546.42511	320
546.94025	333
547.45538	321
547.97052	320
548.4856	322
549.00073	321
549.51581	341
550.03088	332
550.5459	317
551.06097	305
551.57599	300
552.091	314
552.60602	325
553.12097	344
553.63593	315
554.15094	330
554.66583	319
555.18079	304
555.69568	297
556.21063	319
556.72552	329
557.24036	323
557.75525	327
558.27008	321
558.78491	322
559.29974	312
559.81458	348
560.32935	315
560.84412	313
561.35889	314
561.87366	303
562.38837	300
562.90308	314
563.41779	323
563.9325	323
564.44714	329
564.96179	327
565.47644	334
565.99109	315
566.50574	339
567.02032	310
567.53491	311
568.0495	328
568.56403	314
569.07861	329
569.59314	321
570.1076	299
570.62213	305
571.1366	321
571.65106	312
572.16553	315
572.67999	307
573.1944	308
573.7088	318
574.22321	311
574.73755	326
575.25195	315
575.7663	307
576.28058	321
576.79492	313
577.3092	326
577.82349	340
578.33777	303
578.85205	324
579.36627	316
579.88049	319
580.39471	329
580.90887	305
581.42303	319
581.93719	305
582.45135	313
582.96545	317
583.47955	313
583.99365	305
584.50775	323
585.02179	305
585.53583	304
586.04987	334
586.5639	321
587.07788	298
587.59186	328
588.10583	317
588.61975	306
589.13373	305
589.64758	329
590.1615	328
590.67542	317
591.18927	329
591.70306	318
592.21692	326
592.73071	310
593.24451	337
593.7583	317
594.27209	310
594.78583	307
595.29956	333
595.81323	308
596.32697	300
596.84064	320
597.35425	305
597.86792	310
598.38153	312
598.89514	318
599.40875	338
599.9223	335
600.43585	310
600.9494	340
601.46289	319
601.97638	308
602.48987	320
603.00336	287
603.51678	307
604.03021	313
604.54364	328
605.05701	323
605.57043	338
606.08374	328
606.59711	316
607.11041	323
607.62372	307
608.13702	306
608.65027	317
609.16351	326
609.67676	323
610.19	316
610.70319	306
611.21637	306
611.72949	290
612.24268	323
612.75574	307
613.26886	302
613.78192	312
614.29504	324
614.80804	327
615.32111	321
615.83411	311
616.34711	318
616.86005	331
617.37299	318
617.88593	295
618.39886	336
618.91174	285
619.42462	325
619.9375	335
620.45032	306
620.96313	287
621.47595	318
621.98871	334
622.50146	335
623.01422	307
623.52692	306
624.03967	324
624.55231	327
625.065	311
625.57764	309
626.09027	318
626.60284	318
627.11542	315
627.62799	303
628.14056	309
628.65308	308
629.16559	320
629.6781	301
630.19055	326
630.703	324
631.21539	320
631.72784	336
632.24017	322
632.75256	311
633.26489	318
633.77722	312
634.28955	311
634.80182	306
635.31409	333
635.82635	294
636.33856	332
636.85077	333
637.36292	311
637.87512	334
638.38721	305
638.89935	344
639.41144	310
639.92352	302
640.43561	325
640.94763	335
641.45966	336
641.97162	308
642.48358	321
642.99554	327
643.50751	314
644.01941	315
644.53131	333
645.04315	337
645.55499	334
646.06683	329
646.57861	334
647.09045	306
647.60217	323
648.11395	294
648.62567	305
649.13733	323
649.64905	330
650.16064	325
650.6723	318
651.1839	328
651.6955	318
652.20709	308
652.71863	316
653.23016	310
653.74164	325
654.25311	304
654.76459	316
655.276	314
655.78741	330
656.29883	315
656.81018	310
657.32153	325
657.83289	309
658.34418	346
658.85547	323
659.3667	321
659.87793	334
660.38916	321
660.90033	325
661.4115	321
661.92267	307
662.43378	324
662.94489	323
663.45593	317
663.96698	319
664.47803	331
664.98907	320
665.50006	319
666.01099	324
666.52191	317
667.03284	314
667.54376	324
668.05463	310
668.56549	316
669.07629	315
669.5871	308
670.0979	331
670.60864	320
671.11938	9904
671.63007	229
672.14075	309
672.65143	313
673.16205	307
673.67267	311
674.18329	320
674.69385	302
675.20435	343
675.7149	319
676.2254	319
676.73584	323
677.24628	316
677.75671	327
678.26715	313
678.77753	312
679.28784	328
679.79822	307
680.30847	315
680.81879	325
681.32904	325
681.83923	325
682.34949	313
682.85968	318
683.36981	311
683.87994	314
684.39008	331
684.90015	313
685.41022	302
685.92023	334
686.43024	305
686.94025	302
687.4502	313
687.96014	321
688.47003	280
688.97992	330
689.48981	334
689.99963	319
690.50946	318
691.01923	299
691.52899	331
692.03876	322
692.54846	346
693.05817	324
693.56781	314
694.07745	332
694.58704	319
695.09662	322
695.6062	306
696.11572	323
696.62524	317
697.1347	299
697.64417	313
698.15363	300
698.66302	317
699.17242	322
699.68176	324
700.1911	312
700.70044	307
701.20972	322
701.71893	318
702.22815	315
702.73737	302
703.24652	307
703.75568	328
704.26483	320
704.77393	339
705.28302	330
705.79205	325
706.30103	318
706.81006	324
707.31903	318
707.82794	330
708.33685	307
708.84576	331
709.35461	332
709.86346	312
710.37225	346
710.88104	304
711.38977	311
711.8985	294
712.40723	313
712.91589	300
713.42456	308
713.93317	338
714.44177	319
714.95032	308
715.45886	305
715.96735	319
716.47583	316
716.98431	333
717.49274	304
718.00116	316
718.50952	310
719.01788	328
719.52618	318
720.03448	306
720.54272	329
721.05096	314
721.5592	311
722.06738	319
722.57556	321
723.08368	323
723.59174	324
724.09985	312
724.60791	309
725.11591	301
725.6239	304
726.13184	300
726.63977	294
727.14771	323
727.65558	315
728.16339	322
728.67126	330
729.17902	303
729.68683	312
730.19452	284
730.70227	310
731.2099	306
731.71759	325
732.22522	328
732.73279	303
733.24036	287
733.74792	329
734.25543	332
734.76288	328
735.27032	310
735.77777	317
736.28516	323
736.79254	312
737.29987	333
737.80719	313
738.31445	319
738.82172	321
739.32892	307
739.83612	326
740.34326	316
740.8504	286
741.35748	297
741.86456	292
742.37164	312
742.87866	304
743.38562	310
743.89258	307
744.39954	330
744.90643	342
745.41327	310
745.9201	323
746.42694	318
746.93372	320
747.44049	313
747.9472	315
748.45386	323
748.96057	298
749.46716	296
749.97375	330
750.48035	333
750.98688	312
751.49341	322
751.99988	293
752.50635	317
753.01276	317
753.51917	306
754.02551	308
754.53186	305
755.03815	311
755.54443	309
756.05066	311
756.55688	308
757.06305	310
757.56921	339
758.07532	327
758.58142	323
759.08746	322
759.59351	294
760.09949	319
760.60547	320
761.11139	315
761.61725	318
762.12317	306
762.62897	329
763.13483	343
763.64056	337
764.1463	320
764.65204	308
765.15771	330
765.66339	301
766.16901	307
766.67462	319
767.18018	310
767.68567	312
768.19116	300
768.69666	309
769.20209	310
769.70746	307
770.21283	293
770.7182	292
771.22351	313
771.72876	320
772.23401	328
772.73926	309
773.24445	318
773.74957	321
774.2547	298
774.75977	321
775.26483	303
775.76984	313
776.27484	292
776.77979	304
777.28473	329
777.78961	315
778.29449	332
778.79932	309
779.30408	332
779.80884	302
780.3136	334
780.8183	296
781.32294	339
781.82758	316
782.33215	326
782.83673	326
783.34131	314
783.84576	332
784.35028	313
784.85468	324
785.35907	318
785.86346	302
786.3678	310
786.87213	311
787.3764	338
787.88062	329
788.38483	345
788.88898	331
789.39313	305
789.89722	302
790.40131	316
790.90533	331
791.40936	320
791.91333	294
792.4173	304
792.9212	326
793.42505	319
793.92889	309
794.43268	301
794.93646	328
795.44019	308
795.94391	313
796.44757	330
796.95123	317
797.45483	306
797.95837	322
798.46191	296
798.96539	350
799.46887	304
799.97235	320
800.47571	284
800.97906	301
801.48242	320
801.98572	337
802.48895	291
802.99219	328
803.49536	326
803.99854	334
804.50165	332
805.00476	308
805.50781	329
806.01086	301
806.51379	323
807.01678	343
807.51971	301
808.02258	309
808.52539	332
809.02826	319
809.53101	322
810.03375	303
810.53644	288
811.03912	299
811.54175	317
812.04437	305
812.54694	319
813.04944	291
813.55194	322
814.05444	323
814.55682	316
815.05927	295
815.56158	317
816.0639	324
816.56622	318
817.06842	315
817.57068	325
818.07281	315
818.57495	326
819.07709	312
819.57916	309
820.08118	312
820.58319	321
821.08514	318
821.5871	311
822.08899	323
822.59082	311
823.09265	324
823.59442	315
824.09619	342
824.5979	313
825.09955	319
825.6012	329
826.10278	333
826.60437	320
827.1059	314
827.60736	312
828.10883	334
828.61023	312
829.11163	313
829.61298	327
830.11432	308
830.61554	324
831.11682	307
831.61798	328
832.11914	325
832.6203	331
833.1214	343
833.62244	308
834.12347	320
834.62445	321
835.12537	340
835.62628	306
836.12714	310
836.62799	333
837.12878	322
837.62952	341
838.13025	304
838.63092	310
839.13153	300
839.63214	332
840.13275	309
840.63324	324
841.13373	322
841.63422	324
842.13464	320
842.63501	323
843.13538	311
843.63568	320
844.13593	309
844.63617	317
845.13635	294
845.63647	327
846.1366	314
846.63672	305
847.13672	329
847.63672	322
848.13672	339
848.6366	319
849.13647	322
849.63635	325
850.13617	316
850.63593	338
851.13568	320
851.63538	333
852.13501	328
852.63464	320
853.13422	330
853.63373	323
854.13324	333
854.63275	322
855.13214	329
855.63153	317
856.13086	313
856.63019	315
857.12946	333
857.62866	302
858.12787	315
858.62701	299
859.12616	324
859.62524	327
860.12427	320
860.62323	307
861.12219	330
861.62109	325
862.12	333
862.61884	319
863.11761	294
863.61639	293
864.11511	303
864.61377	324
865.11243	313
865.61102	320
866.10962	324
866.60809	325
867.10663	320
867.60504	308
868.10345	323
868.60181	319
869.10016	305
869.59839	317
870.09668	320
870.59485	308
871.09302	320
871.59113	309
872.08923	324
872.58728	318
873.08527	333
873.58325	331
874.08118	298
874.57904	340
875.0769	329
875.57465	322
876.07245	336
876.57013	305
877.06781	334
877.56549	310
878.06305	349
878.56061	330
879.05817	312
879.5556	323
880.05304	325
880.55042	297
881.04779	305
881.5451	336
882.04236	328
882.53961	293
883.0368	330
883.53394	305
884.03107	316
884.52808	320
885.02515	297
