Date and Time:                Thu Oct 30 09:24:32.932 2025
Software Version:             4.30.30000.0
Temperature (C):              -90
Model:                        DU971P_UVB
Data Type:                    Counts
Acquisition Mode:             Single Scan
Trigger Mode:                 Internal
Exposure Time (secs):         30
Readout Mode:                 Full Vertical Binning
Horizontal binning:           2
Extended Dynamic Range:       off
Horizontally flipped:         false
Vertical Shift Speed (usecs): 9.68
Pixel Readout Rate (MHz):     3
Baseline Clamp:               ON
Clock Amplitude:              Normal
Output Amplifier:             Conventional
Serial Number:                20367
Pre-Amplifier Gain:           4x
Spurious Noise Filter Mode:   No Filter
Photon counted:               false
Data Averaging Filter Mode:   No Filter
SR193i:
Serial Number:                SR-2646
Wavelength (nm):              690
Grating Groove Density (l/mm):300
Grating Blaze:                500nm
Input Side Slit Width (um):   1000



478.32681	318
478.84332	361
479.35983	355
479.87631	372
480.39282	378
480.9093	394
481.42575	375
481.94223	365
482.45868	340
482.97513	379
483.49158	350
484.00803	390
484.52444	375
485.04086	395
485.55728	388
486.07367	400
486.59006	402
487.10645	417
487.62283	425
488.13919	439
488.65555	472
489.17191	474
489.68826	471
490.20459	510
490.72092	470
491.23724	506
491.75354	493
492.26984	518
492.78613	528
493.30243	508
493.8187	531
494.33496	556
494.85123	528
495.36746	564
495.8837	602
496.39993	581
496.91617	576
497.43237	614
497.94858	615
498.46478	621
498.98096	660
499.49713	609
500.01331	609
500.52945	658
501.04562	646
501.56174	633
502.07788	583
502.59399	592
503.11011	590
503.62622	629
504.1423	659
504.65839	609
505.17447	638
505.69052	629
506.20657	597
506.72263	617
507.23865	620
507.75467	600
508.27069	618
508.78668	626
509.30267	621
509.81866	647
510.33463	600
510.85059	595
511.36655	667
511.88248	608
512.39844	656
512.91437	613
513.43024	599
513.94617	653
514.46204	632
514.97791	632
515.49377	610
516.00964	629
516.52551	625
517.04132	597
517.55719	631
518.073	622
518.58881	609
519.10461	600
519.62036	592
520.13617	621
520.65192	617
521.16766	578
521.68341	637
522.1991	586
522.71484	607
523.23053	594
523.74622	575
524.2619	574
524.77759	582
525.29327	607
525.8089	620
526.32452	595
526.84015	632
527.35577	598
527.8714	604
528.38696	563
528.90259	585
529.41815	597
529.93372	607
530.44922	606
530.96478	599
531.48029	579
531.99579	588
532.51129	604
533.02679	589
533.5423	595
534.05774	595
534.57318	578
535.08862	601
535.60406	577
536.11945	570
536.63489	545
537.15027	582
537.66565	545
538.18097	595
538.69635	504
539.21167	579
539.72699	562
540.24231	568
540.75763	586
541.27289	550
541.78821	562
542.30347	592
542.81873	529
543.33392	578
543.84918	560
544.36438	551
544.87958	531
545.39478	573
545.90991	579
546.42511	574
546.94025	545
547.45538	516
547.97052	578
548.4856	538
549.00073	508
549.51581	526
550.03088	558
550.5459	519
551.06097	556
551.57599	541
552.091	532
552.60602	549
553.12097	509
553.63593	552
554.15094	529
554.66583	554
555.18079	572
555.69568	566
556.21063	524
556.72552	546
557.24036	554
557.75525	553
558.27008	582
558.78491	558
559.29974	579
559.81458	536
560.32935	563
560.84412	553
561.35889	579
561.87366	572
562.38837	593
562.90308	563
563.41779	555
563.9325	573
564.44714	570
564.96179	575
565.47644	586
565.99109	591
566.50574	618
567.02032	602
567.53491	595
568.0495	615
568.56403	600
569.07861	572
569.59314	620
570.1076	599
570.62213	630
571.1366	581
571.65106	599
572.16553	627
572.67999	652
573.1944	596
573.7088	631
574.22321	645
574.73755	620
575.25195	643
575.7663	654
576.28058	649
576.79492	642
577.3092	610
577.82349	662
578.33777	685
578.85205	656
579.36627	618
579.88049	657
580.39471	675
580.90887	650
581.42303	697
581.93719	681
582.45135	713
582.96545	713
583.47955	691
583.99365	687
584.50775	687
585.02179	716
585.53583	665
586.04987	698
586.5639	708
587.07788	714
587.59186	683
588.10583	707
588.61975	708
589.13373	747
589.64758	721
590.1615	736
590.67542	737
591.18927	767
591.70306	732
592.21692	765
592.73071	731
593.24451	757
593.7583	718
594.27209	713
594.78583	728
595.29956	724
595.81323	770
596.32697	730
596.84064	776
597.35425	725
597.86792	789
598.38153	770
598.89514	719
599.40875	748
599.9223	735
600.43585	773
600.9494	768
601.46289	778
601.97638	746
602.48987	793
603.00336	740
603.51678	761
604.03021	763
604.54364	778
605.05701	750
605.57043	739
606.08374	810
606.59711	754
607.11041	751
607.62372	774
608.13702	792
608.65027	772
609.16351	733
609.67676	763
610.19	769
610.70319	753
611.21637	771
611.72949	718
612.24268	774
612.75574	780
613.26886	791
613.78192	742
614.29504	766
614.80804	761
615.32111	753
615.83411	764
616.34711	758
616.86005	766
617.37299	747
617.88593	733
618.39886	774
618.91174	699
619.42462	741
619.9375	743
620.45032	717
620.96313	740
621.47595	731
621.98871	740
622.50146	723
623.01422	724
623.52692	718
624.03967	720
624.55231	736
625.065	698
625.57764	683
626.09027	726
626.60284	684
627.11542	715
627.62799	690
628.14056	647
628.65308	664
629.16559	668
629.6781	692
630.19055	699
630.703	694
631.21539	654
631.72784	664
632.24017	691
632.75256	688
633.26489	654
633.77722	686
634.28955	683
634.80182	716
635.31409	655
635.82635	696
636.33856	678
636.85077	648
637.36292	673
637.87512	705
638.38721	683
638.89935	638
639.41144	630
639.92352	681
640.43561	706
640.94763	634
641.45966	642
641.97162	622
642.48358	678
642.99554	636
643.50751	612
644.01941	606
644.53131	663
645.04315	611
645.55499	665
646.06683	602
646.57861	627
647.09045	634
647.60217	621
648.11395	590
648.62567	611
649.13733	592
649.64905	605
650.16064	591
650.6723	594
651.1839	598
651.6955	619
652.20709	602
652.71863	605
653.23016	601
653.74164	605
654.25311	584
654.76459	613
655.276	612
655.78741	639
656.29883	578
656.81018	609
657.32153	551
657.83289	578
658.34418	611
658.85547	579
659.3667	572
659.87793	561
660.38916	530
660.90033	575
661.4115	570
661.92267	546
662.43378	515
662.94489	561
663.45593	571
663.96698	564
664.47803	538
664.98907	539
665.50006	548
666.01099	533
666.52191	549
667.03284	556
667.54376	537
668.05463	546
668.56549	523
669.07629	506
669.5871	542
670.0979	548
670.60864	501
671.11938	529
671.63007	527
672.14075	524
672.65143	489
673.16205	508
673.67267	505
674.18329	502
674.69385	506
675.20435	542
675.7149	494
676.2254	520
676.73584	512
677.24628	509
677.75671	540
678.26715	500
678.77753	518
679.28784	497
679.79822	546
680.30847	494
680.81879	513
681.32904	517
681.83923	451
682.34949	486
682.85968	489
683.36981	502
683.87994	473
684.39008	489
684.90015	499
685.41022	477
685.92023	487
686.43024	466
686.94025	469
687.4502	431
687.96014	460
688.47003	471
688.97992	494
689.48981	443
689.99963	476
690.50946	485
691.01923	464
691.52899	481
692.03876	425
692.54846	458
693.05817	447
693.56781	431
694.07745	440
694.58704	469
695.09662	468
695.6062	452
696.11572	446
696.62524	441
697.1347	407
697.64417	441
698.15363	459
698.66302	415
699.17242	458
699.68176	431
700.1911	444
700.70044	469
701.20972	407
701.71893	409
702.22815	435
702.73737	424
703.24652	410
703.75568	422
704.26483	441
704.77393	403
705.28302	418
705.79205	405
706.30103	415
706.81006	388
707.31903	408
707.82794	402
708.33685	425
708.84576	412
709.35461	383
709.86346	421
710.37225	428
710.88104	416
711.38977	428
711.8985	417
712.40723	406
712.91589	394
713.42456	398
713.93317	390
714.44177	416
714.95032	389
715.45886	363
715.96735	371
716.47583	401
716.98431	368
717.49274	396
718.00116	413
718.50952	351
719.01788	378
719.52618	411
720.03448	366
720.54272	386
721.05096	397
721.5592	422
722.06738	412
722.57556	412
723.08368	396
723.59174	382
724.09985	380
724.60791	388
725.11591	379
725.6239	401
726.13184	402
726.63977	367
727.14771	368
727.65558	385
728.16339	407
728.67126	395
729.17902	395
729.68683	375
730.19452	393
730.70227	397
731.2099	371
731.71759	385
732.22522	380
732.73279	361
733.24036	373
733.74792	365
734.25543	367
734.76288	370
735.27032	398
735.77777	390
736.28516	380
736.79254	382
737.29987	398
737.80719	370
738.31445	363
738.82172	404
739.32892	389
739.83612	383
740.34326	364
740.8504	357
741.35748	373
741.86456	340
742.37164	349
742.87866	374
743.38562	342
743.89258	372
744.39954	381
744.90643	374
745.41327	355
745.9201	343
746.42694	368
746.93372	362
747.44049	362
747.9472	342
748.45386	361
748.96057	371
749.46716	363
749.97375	358
750.48035	363
750.98688	354
751.49341	368
751.99988	373
752.50635	363
753.01276	349
753.51917	338
754.02551	365
754.53186	382
755.03815	378
755.54443	346
756.05066	359
756.55688	362
757.06305	349
757.56921	336
758.07532	351
758.58142	365
759.08746	374
759.59351	331
760.09949	358
760.60547	360
761.11139	338
761.61725	341
762.12317	364
762.62897	359
763.13483	370
763.64056	361
764.1463	359
764.65204	345
765.15771	341
765.66339	367
766.16901	345
766.67462	335
767.18018	351
767.68567	339
768.19116	335
768.69666	333
769.20209	357
769.70746	344
770.21283	333
770.7182	378
771.22351	332
771.72876	335
772.23401	315
772.73926	331
773.24445	339
773.74957	345
774.2547	352
774.75977	333
775.26483	335
775.76984	333
776.27484	345
776.77979	345
777.28473	345
777.78961	333
778.29449	351
778.79932	369
779.30408	356
779.80884	353
780.3136	344
780.8183	307
781.32294	328
781.82758	343
782.33215	321
782.83673	344
783.34131	349
783.84576	336
784.35028	355
784.85468	339
785.35907	768
785.86346	5533
786.3678	322
786.87213	354
787.3764	334
787.88062	339
788.38483	312
788.88898	351
789.39313	331
789.89722	347
790.40131	327
790.90533	333
791.40936	338
791.91333	353
792.4173	342
792.9212	338
793.42505	344
793.92889	319
794.43268	346
794.93646	331
795.44019	333
795.94391	332
796.44757	322
796.95123	347
797.45483	313
797.95837	335
798.46191	339
798.96539	328
799.46887	338
799.97235	314
800.47571	342
800.97906	323
801.48242	314
801.98572	328
802.48895	329
802.99219	329
803.49536	354
803.99854	347
804.50165	333
805.00476	341
805.50781	328
806.01086	340
806.51379	321
807.01678	330
807.51971	346
808.02258	324
808.52539	323
809.02826	331
809.53101	362
810.03375	340
810.53644	335
811.03912	343
811.54175	336
812.04437	316
812.54694	312
813.04944	357
813.55194	356
814.05444	314
814.55682	332
815.05927	332
815.56158	344
816.0639	356
816.56622	334
817.06842	331
817.57068	328
818.07281	319
818.57495	331
819.07709	328
819.57916	335
820.08118	349
820.58319	326
821.08514	356
821.5871	330
822.08899	313
822.59082	343
823.09265	345
823.59442	347
824.09619	335
824.5979	342
825.09955	324
825.6012	324
826.10278	325
826.60437	315
827.1059	321
827.60736	327
828.10883	311
828.61023	340
829.11163	325
829.61298	341
830.11432	322
830.61554	321
831.11682	309
831.61798	330
832.11914	336
832.6203	325
833.1214	318
833.62244	326
834.12347	318
834.62445	321
835.12537	328
835.62628	320
836.12714	328
836.62799	338
837.12878	349
837.62952	347
838.13025	347
838.63092	339
839.13153	353
839.63214	331
840.13275	335
840.63324	317
841.13373	318
841.63422	344
842.13464	342
842.63501	303
843.13538	314
843.63568	320
844.13593	319
844.63617	331
845.13635	362
845.63647	327
846.1366	302
846.63672	337
847.13672	344
847.63672	301
848.13672	329
848.6366	324
849.13647	326
849.63635	326
850.13617	341
850.63593	331
851.13568	326
851.63538	293
852.13501	340
852.63464	348
853.13422	336
853.63373	333
854.13324	336
854.63275	306
855.13214	328
855.63153	348
856.13086	331
856.63019	331
857.12946	314
857.62866	327
858.12787	333
858.62701	340
859.12616	330
859.62524	333
860.12427	303
860.62323	335
861.12219	354
861.62109	333
862.12	339
862.61884	344
863.11761	340
863.61639	346
864.11511	342
864.61377	321
865.11243	322
865.61102	322
866.10962	337
866.60809	341
867.10663	334
867.60504	339
868.10345	336
868.60181	327
869.10016	328
869.59839	345
870.09668	389
870.59485	427
871.09302	535
871.59113	615
872.08923	696
872.58728	691
873.08527	778
873.58325	807
874.08118	753
874.57904	767
875.0769	843
875.57465	871
876.07245	802
876.57013	800
877.06781	904
877.56549	836
878.06305	779
878.56061	840
879.05817	860
879.5556	856
880.05304	825
880.55042	851
881.04779	894
881.5451	939
882.04236	917
882.53961	874
883.0368	844
883.53394	880
884.03107	874
884.52808	853
885.02515	910
