Date and Time:                Sat Oct 18 08:27:03.390 2025
Software Version:             4.30.30000.0
Temperature (C):              -90
Model:                        DU971P_UVB
Data Type:                    Counts
Acquisition Mode:             Single Scan
Trigger Mode:                 Internal
Exposure Time (secs):         0.5
Readout Mode:                 Full Vertical Binning
Horizontal binning:           2
Extended Dynamic Range:       off
Horizontally flipped:         false
Vertical Shift Speed (usecs): 9.68
Pixel Readout Rate (MHz):     3
Baseline Clamp:               ON
Clock Amplitude:              Normal
Output Amplifier:             Conventional
Serial Number:                20367
Pre-Amplifier Gain:           4x
Spurious Noise Filter Mode:   No Filter
Photon counted:               false
Data Averaging Filter Mode:   No Filter
SR193i:
Serial Number:                SR-2646
Wavelength (nm):              690
Grating Groove Density (l/mm):300
Grating Blaze:                500nm
Input Side Slit Width (um):   1000



478.32681	253
478.84332	309
479.35983	337
479.87631	329
480.39282	336
480.9093	324
481.42575	329
481.94223	327
482.45868	316
482.97513	303
483.49158	343
484.00803	350
484.52444	385
485.04086	411
485.55728	497
486.07367	525
486.59006	594
487.10645	625
487.62283	644
488.13919	718
488.65555	720
489.17191	739
489.68826	802
490.20459	853
490.72092	896
491.23724	955
491.75354	1067
492.26984	1057
492.78613	1089
493.30243	1149
493.8187	1252
494.33496	1315
494.85123	1314
495.36746	1365
495.8837	1500
496.39993	1531
496.91617	1635
497.43237	1702
497.94858	1757
498.46478	1792
498.98096	1975
499.49713	2017
500.01331	2083
500.52945	2201
501.04562	2345
501.56174	2628
502.07788	2721
502.59399	2926
503.11011	3367
503.62622	3595
504.1423	3960
504.65839	4355
505.17447	4994
505.69052	5418
506.20657	5980
506.72263	6680
507.23865	7495
507.75467	8260
508.27069	8948
508.78668	10002
509.30267	11224
509.81866	12270
510.33463	13084
510.85059	14293
511.36655	15388
511.88248	16224
512.39844	17261
512.91437	17852
513.43024	18120
513.94617	18691
514.46204	19569
514.97791	19407
515.49377	20164
516.00964	19826
516.52551	19824
517.04132	20079
517.55719	19675
518.073	19469
518.58881	18546
519.10461	18681
519.62036	18386
520.13617	17970
520.65192	17316
521.16766	16599
521.68341	15852
522.1991	14939
522.71484	14274
523.23053	13287
523.74622	12272
524.2619	11394
524.77759	10239
525.29327	9265
525.8089	8356
526.32452	7380
526.84015	6592
527.35577	5791
527.8714	5153
528.38696	4548
528.90259	4022
529.41815	3582
529.93372	3118
530.44922	3002
530.96478	2675
531.48029	2517
531.99579	2400
532.51129	2275
533.02679	2258
533.5423	2298
534.05774	2249
534.57318	2184
535.08862	2292
535.60406	2174
536.11945	2160
536.63489	2141
537.15027	2054
537.66565	1983
538.18097	2015
538.69635	1871
539.21167	1904
539.72699	1856
540.24231	1836
540.75763	1804
541.27289	1714
541.78821	1625
542.30347	1629
542.81873	1638
543.33392	1607
543.84918	1639
544.36438	1531
544.87958	1541
545.39478	1449
545.90991	1491
546.42511	1475
546.94025	1427
547.45538	1348
547.97052	1443
548.4856	1383
549.00073	1300
549.51581	1409
550.03088	1317
550.5459	1350
551.06097	1342
551.57599	1324
552.091	1293
552.60602	1268
553.12097	1246
553.63593	1209
554.15094	1184
554.66583	1242
555.18079	1251
555.69568	1248
556.21063	1191
556.72552	1214
557.24036	1224
557.75525	1151
558.27008	1160
558.78491	1220
559.29974	1122
559.81458	1157
560.32935	1168
560.84412	1165
561.35889	1111
561.87366	1121
562.38837	1105
562.90308	1097
563.41779	1096
563.9325	1086
564.44714	1037
564.96179	1108
565.47644	1076
565.99109	1120
566.50574	1081
567.02032	992
567.53491	1006
568.0495	1115
568.56403	1032
569.07861	1016
569.59314	1028
570.1076	970
570.62213	1053
571.1366	1061
571.65106	994
572.16553	988
572.67999	951
573.1944	905
573.7088	927
574.22321	958
574.73755	941
575.25195	948
575.7663	968
576.28058	943
576.79492	918
577.3092	921
577.82349	907
578.33777	883
578.85205	888
579.36627	847
579.88049	870
580.39471	861
580.90887	857
581.42303	861
581.93719	853
582.45135	884
582.96545	844
583.47955	861
583.99365	885
584.50775	792
585.02179	824
585.53583	775
586.04987	832
586.5639	819
587.07788	727
587.59186	805
588.10583	820
588.61975	790
589.13373	845
589.64758	736
590.1615	783
590.67542	747
591.18927	799
591.70306	766
592.21692	734
592.73071	753
593.24451	737
593.7583	690
594.27209	769
594.78583	718
595.29956	718
595.81323	751
596.32697	737
596.84064	708
597.35425	715
597.86792	692
598.38153	747
598.89514	711
599.40875	739
599.9223	657
600.43585	636
600.9494	668
601.46289	693
601.97638	686
602.48987	688
603.00336	641
603.51678	621
604.03021	633
604.54364	668
605.05701	678
605.57043	665
606.08374	605
606.59711	649
607.11041	698
607.62372	612
608.13702	624
608.65027	624
609.16351	612
609.67676	613
610.19	586
610.70319	579
611.21637	634
611.72949	591
612.24268	599
612.75574	581
613.26886	620
613.78192	594
614.29504	544
614.80804	619
615.32111	579
615.83411	603
616.34711	595
616.86005	555
617.37299	552
617.88593	588
618.39886	545
618.91174	559
619.42462	557
619.9375	554
620.45032	548
620.96313	541
621.47595	563
621.98871	545
622.50146	571
623.01422	578
623.52692	555
624.03967	550
624.55231	541
625.065	518
625.57764	542
626.09027	554
626.60284	536
627.11542	504
627.62799	555
628.14056	506
628.65308	557
629.16559	505
629.6781	569
630.19055	485
630.703	507
631.21539	496
631.72784	525
632.24017	509
632.75256	492
633.26489	510
633.77722	501
634.28955	483
634.80182	528
635.31409	519
635.82635	469
636.33856	470
636.85077	513
637.36292	489
637.87512	438
638.38721	481
638.89935	467
639.41144	466
639.92352	456
640.43561	451
640.94763	450
641.45966	461
641.97162	465
642.48358	459
642.99554	453
643.50751	483
644.01941	440
644.53131	440
645.04315	428
645.55499	476
646.06683	471
646.57861	446
647.09045	470
647.60217	443
648.11395	432
648.62567	438
649.13733	412
649.64905	453
650.16064	455
650.6723	455
651.1839	466
651.6955	434
652.20709	426
652.71863	449
653.23016	434
653.74164	410
654.25311	396
654.76459	422
655.276	432
655.78741	423
656.29883	414
656.81018	424
657.32153	430
657.83289	410
658.34418	426
658.85547	377
659.3667	397
659.87793	411
660.38916	395
660.90033	403
661.4115	415
661.92267	364
662.43378	413
662.94489	405
663.45593	377
663.96698	406
664.47803	380
664.98907	394
665.50006	378
666.01099	399
666.52191	410
667.03284	360
667.54376	426
668.05463	395
668.56549	368
669.07629	400
669.5871	408
670.0979	427
670.60864	375
671.11938	391
671.63007	391
672.14075	371
672.65143	402
673.16205	387
673.67267	349
674.18329	364
674.69385	391
675.20435	359
675.7149	361
676.2254	380
676.73584	389
677.24628	366
677.75671	380
678.26715	372
678.77753	387
679.28784	368
679.79822	359
680.30847	359
680.81879	386
681.32904	393
681.83923	383
682.34949	368
682.85968	371
683.36981	360
683.87994	370
684.39008	369
684.90015	377
685.41022	344
685.92023	352
686.43024	368
686.94025	355
687.4502	377
687.96014	358
688.47003	355
688.97992	320
689.48981	358
689.99963	355
690.50946	353
691.01923	377
691.52899	342
692.03876	367
692.54846	350
693.05817	356
693.56781	333
694.07745	352
694.58704	382
695.09662	339
695.6062	340
696.11572	382
696.62524	361
697.1347	353
697.64417	349
698.15363	345
698.66302	315
699.17242	352
699.68176	348
700.1911	358
700.70044	343
701.20972	346
701.71893	355
702.22815	324
702.73737	341
703.24652	327
703.75568	337
704.26483	366
704.77393	352
705.28302	359
705.79205	351
706.30103	330
706.81006	339
707.31903	339
707.82794	342
708.33685	351
708.84576	343
709.35461	323
709.86346	346
710.37225	347
710.88104	345
711.38977	332
711.8985	323
712.40723	337
712.91589	320
713.42456	313
713.93317	352
714.44177	331
714.95032	333
715.45886	327
715.96735	347
716.47583	335
716.98431	337
717.49274	337
718.00116	347
718.50952	338
719.01788	349
719.52618	336
720.03448	321
720.54272	306
721.05096	311
721.5592	337
722.06738	323
722.57556	320
723.08368	339
723.59174	325
724.09985	335
724.60791	325
725.11591	357
725.6239	345
726.13184	347
726.63977	320
727.14771	307
727.65558	331
728.16339	363
728.67126	323
729.17902	332
729.68683	359
730.19452	351
730.70227	332
731.2099	324
731.71759	329
732.22522	302
732.73279	301
733.24036	310
733.74792	312
734.25543	316
734.76288	328
735.27032	346
735.77777	317
736.28516	334
736.79254	335
737.29987	317
737.80719	317
738.31445	314
738.82172	326
739.32892	320
739.83612	327
740.34326	350
740.8504	313
741.35748	317
741.86456	314
742.37164	342
742.87866	333
743.38562	350
743.89258	310
744.39954	331
744.90643	332
745.41327	326
745.9201	325
746.42694	323
746.93372	325
747.44049	339
747.9472	334
748.45386	316
748.96057	321
749.46716	317
749.97375	307
750.48035	325
750.98688	316
751.49341	325
751.99988	310
752.50635	326
753.01276	309
753.51917	308
754.02551	322
754.53186	331
755.03815	315
755.54443	320
756.05066	314
756.55688	324
757.06305	329
757.56921	329
758.07532	286
758.58142	318
759.08746	318
759.59351	312
760.09949	329
760.60547	309
761.11139	321
761.61725	311
762.12317	315
762.62897	301
763.13483	325
763.64056	333
764.1463	301
764.65204	314
765.15771	311
765.66339	316
766.16901	321
766.67462	324
767.18018	310
767.68567	336
768.19116	304
768.69666	311
769.20209	323
769.70746	343
770.21283	330
770.7182	321
771.22351	314
771.72876	304
772.23401	320
772.73926	326
773.24445	319
773.74957	317
774.2547	306
774.75977	306
775.26483	316
775.76984	319
776.27484	311
776.77979	318
777.28473	326
777.78961	289
778.29449	304
778.79932	322
779.30408	288
779.80884	329
780.3136	315
780.8183	316
781.32294	315
781.82758	321
782.33215	315
782.83673	317
783.34131	313
783.84576	302
784.35028	319
784.85468	332
785.35907	305
785.86346	322
786.3678	333
786.87213	304
787.3764	307
787.88062	315
788.38483	332
788.88898	322
789.39313	308
789.89722	302
790.40131	311
790.90533	321
791.40936	303
791.91333	302
792.4173	318
792.9212	296
793.42505	323
793.92889	332
794.43268	315
794.93646	314
795.44019	322
795.94391	312
796.44757	311
796.95123	330
797.45483	319
797.95837	324
798.46191	312
798.96539	311
799.46887	330
799.97235	315
800.47571	301
800.97906	326
801.48242	324
801.98572	302
802.48895	309
802.99219	305
803.49536	316
803.99854	301
804.50165	318
805.00476	321
805.50781	303
806.01086	306
806.51379	290
807.01678	312
807.51971	335
808.02258	301
808.52539	321
809.02826	325
809.53101	326
810.03375	325
810.53644	333
811.03912	320
811.54175	307
812.04437	300
812.54694	301
813.04944	313
813.55194	327
814.05444	316
814.55682	301
815.05927	315
815.56158	322
816.0639	315
816.56622	309
817.06842	307
817.57068	317
818.07281	330
818.57495	324
819.07709	325
819.57916	318
820.08118	327
820.58319	298
821.08514	314
821.5871	330
822.08899	307
822.59082	321
823.09265	325
823.59442	335
824.09619	308
824.5979	311
825.09955	309
825.6012	323
826.10278	301
826.60437	314
827.1059	311
827.60736	299
828.10883	315
828.61023	324
829.11163	310
829.61298	291
830.11432	311
830.61554	308
831.11682	316
831.61798	305
832.11914	332
832.6203	311
833.1214	310
833.62244	322
834.12347	307
834.62445	306
835.12537	291
835.62628	297
836.12714	315
836.62799	318
837.12878	317
837.62952	321
838.13025	298
838.63092	319
839.13153	327
839.63214	307
840.13275	290
840.63324	312
841.13373	320
841.63422	313
842.13464	308
842.63501	277
843.13538	285
843.63568	311
844.13593	313
844.63617	299
845.13635	300
845.63647	309
846.1366	295
846.63672	306
847.13672	307
847.63672	318
848.13672	290
848.6366	336
849.13647	323
849.63635	305
850.13617	300
850.63593	319
851.13568	313
851.63538	317
852.13501	299
852.63464	332
853.13422	301
853.63373	341
854.13324	305
854.63275	306
855.13214	332
855.63153	310
856.13086	311
856.63019	316
857.12946	333
857.62866	317
858.12787	297
858.62701	322
859.12616	341
859.62524	324
860.12427	313
860.62323	315
861.12219	307
861.62109	301
862.12	323
862.61884	340
863.11761	299
863.61639	316
864.11511	313
864.61377	319
865.11243	319
865.61102	293
866.10962	316
866.60809	294
867.10663	319
867.60504	307
868.10345	340
868.60181	298
869.10016	315
869.59839	320
870.09668	328
870.59485	327
871.09302	310
871.59113	296
872.08923	317
872.58728	321
873.08527	311
873.58325	331
874.08118	341
874.57904	307
875.0769	324
875.57465	320
876.07245	300
876.57013	312
877.06781	338
877.56549	311
878.06305	338
878.56061	322
879.05817	322
879.5556	317
880.05304	320
880.55042	311
881.04779	343
881.5451	319
882.04236	314
882.53961	321
883.0368	331
883.53394	313
884.03107	304
884.52808	297
885.02515	332
