Date and Time:                Thu Oct 30 08:31:28.827 2025
Software Version:             4.30.30000.0
Unstabilized Temperature (C): -90.28
Model:                        DU971P_UVB
Data Type:                    Counts
Acquisition Mode:             Single Scan
Trigger Mode:                 Internal
Exposure Time (secs):         30
Readout Mode:                 Full Vertical Binning
Horizontal binning:           2
Extended Dynamic Range:       off
Horizontally flipped:         false
Vertical Shift Speed (usecs): 9.68
Pixel Readout Rate (MHz):     3
Baseline Clamp:               ON
Clock Amplitude:              Normal
Output Amplifier:             Conventional
Serial Number:                20367
Pre-Amplifier Gain:           4x
Spurious Noise Filter Mode:   No Filter
Photon counted:               false
Data Averaging Filter Mode:   No Filter
SR193i:
Serial Number:                SR-2646
Wavelength (nm):              690
Grating Groove Density (l/mm):300
Grating Blaze:                500nm
Input Side Slit Width (um):   1000



478.32681	284
478.84332	315
479.35983	310
479.87631	301
480.39282	316
480.9093	304
481.42575	327
481.94223	315
482.45868	321
482.97513	319
483.49158	348
484.00803	322
484.52444	350
485.04086	303
485.55728	342
486.07367	338
486.59006	309
487.10645	335
487.62283	300
488.13919	335
488.65555	330
489.17191	339
489.68826	327
490.20459	326
490.72092	346
491.23724	330
491.75354	344
492.26984	336
492.78613	326
493.30243	331
493.8187	349
494.33496	348
494.85123	348
495.36746	340
495.8837	329
496.39993	363
496.91617	332
497.43237	318
497.94858	345
498.46478	357
498.98096	348
499.49713	371
500.01331	329
500.52945	366
501.04562	323
501.56174	346
502.07788	352
502.59399	368
503.11011	357
503.62622	348
504.1423	380
504.65839	343
505.17447	357
505.69052	340
506.20657	365
506.72263	337
507.23865	344
507.75467	350
508.27069	346
508.78668	350
509.30267	337
509.81866	354
510.33463	379
510.85059	362
511.36655	356
511.88248	361
512.39844	358
512.91437	352
513.43024	364
513.94617	348
514.46204	363
514.97791	347
515.49377	351
516.00964	352
516.52551	374
517.04132	355
517.55719	336
518.073	350
518.58881	356
519.10461	348
519.62036	356
520.13617	353
520.65192	340
521.16766	342
521.68341	367
522.1991	326
522.71484	370
523.23053	341
523.74622	358
524.2619	338
524.77759	334
525.29327	364
525.8089	381
526.32452	329
526.84015	359
527.35577	369
527.8714	349
528.38696	354
528.90259	334
529.41815	347
529.93372	348
530.44922	333
530.96478	338
531.48029	335
531.99579	340
532.51129	346
533.02679	348
533.5423	367
534.05774	348
534.57318	333
535.08862	331
535.60406	321
536.11945	338
536.63489	350
537.15027	344
537.66565	334
538.18097	368
538.69635	366
539.21167	350
539.72699	360
540.24231	329
540.75763	333
541.27289	343
541.78821	345
542.30347	359
542.81873	357
543.33392	334
543.84918	341
544.36438	363
544.87958	363
545.39478	347
545.90991	323
546.42511	356
546.94025	343
547.45538	366
547.97052	359
548.4856	341
549.00073	324
549.51581	330
550.03088	317
550.5459	334
551.06097	329
551.57599	310
552.091	327
552.60602	346
553.12097	332
553.63593	343
554.15094	357
554.66583	367
555.18079	326
555.69568	346
556.21063	332
556.72552	342
557.24036	319
557.75525	335
558.27008	344
558.78491	318
559.29974	344
559.81458	358
560.32935	358
560.84412	342
561.35889	321
561.87366	354
562.38837	341
562.90308	342
563.41779	335
563.9325	307
564.44714	338
564.96179	345
565.47644	327
565.99109	320
566.50574	345
567.02032	321
567.53491	338
568.0495	330
568.56403	363
569.07861	328
569.59314	330
570.1076	327
570.62213	344
571.1366	327
571.65106	334
572.16553	329
572.67999	345
573.1944	340
573.7088	332
574.22321	335
574.73755	347
575.25195	325
575.7663	312
576.28058	334
576.79492	338
577.3092	352
577.82349	344
578.33777	329
578.85205	325
579.36627	317
579.88049	329
580.39471	318
580.90887	337
581.42303	333
581.93719	332
582.45135	358
582.96545	330
583.47955	346
583.99365	321
584.50775	324
585.02179	318
585.53583	361
586.04987	307
586.5639	322
587.07788	309
587.59186	342
588.10583	344
588.61975	351
589.13373	324
589.64758	333
590.1615	339
590.67542	326
591.18927	321
591.70306	315
592.21692	317
592.73071	325
593.24451	334
593.7583	327
594.27209	325
594.78583	323
595.29956	332
595.81323	348
596.32697	343
596.84064	334
597.35425	314
597.86792	336
598.38153	336
598.89514	322
599.40875	327
599.9223	346
600.43585	308
600.9494	320
601.46289	332
601.97638	311
602.48987	302
603.00336	329
603.51678	327
604.03021	326
604.54364	326
605.05701	302
605.57043	318
606.08374	321
606.59711	318
607.11041	327
607.62372	324
608.13702	338
608.65027	323
609.16351	324
609.67676	366
610.19	314
610.70319	332
611.21637	330
611.72949	323
612.24268	333
612.75574	336
613.26886	331
613.78192	340
614.29504	339
614.80804	323
615.32111	333
615.83411	311
616.34711	340
616.86005	312
617.37299	327
617.88593	319
618.39886	327
618.91174	333
619.42462	326
619.9375	316
620.45032	316
620.96313	328
621.47595	314
621.98871	310
622.50146	313
623.01422	333
623.52692	340
624.03967	324
624.55231	339
625.065	322
625.57764	329
626.09027	321
626.60284	333
627.11542	322
627.62799	316
628.14056	314
628.65308	340
629.16559	345
629.6781	326
630.19055	320
630.703	322
631.21539	342
631.72784	336
632.24017	321
632.75256	329
633.26489	326
633.77722	313
634.28955	318
634.80182	341
635.31409	308
635.82635	315
636.33856	303
636.85077	331
637.36292	343
637.87512	331
638.38721	322
638.89935	320
639.41144	341
639.92352	326
640.43561	317
640.94763	319
641.45966	324
641.97162	308
642.48358	317
642.99554	321
643.50751	338
644.01941	317
644.53131	313
645.04315	343
645.55499	337
646.06683	317
646.57861	296
647.09045	325
647.60217	319
648.11395	312
648.62567	315
649.13733	327
649.64905	309
650.16064	296
650.6723	328
651.1839	342
651.6955	346
652.20709	318
652.71863	317
653.23016	313
653.74164	317
654.25311	339
654.76459	336
655.276	338
655.78741	308
656.29883	318
656.81018	314
657.32153	311
657.83289	346
658.34418	336
658.85547	328
659.3667	345
659.87793	305
660.38916	345
660.90033	325
661.4115	303
661.92267	323
662.43378	319
662.94489	329
663.45593	318
663.96698	307
664.47803	343
664.98907	314
665.50006	297
666.01099	322
666.52191	325
667.03284	319
667.54376	317
668.05463	330
668.56549	326
669.07629	323
669.5871	337
670.0979	315
670.60864	327
671.11938	335
671.63007	319
672.14075	328
672.65143	314
673.16205	311
673.67267	308
674.18329	290
674.69385	305
675.20435	334
675.7149	319
676.2254	310
676.73584	304
677.24628	325
677.75671	319
678.26715	324
678.77753	323
679.28784	321
679.79822	302
680.30847	313
680.81879	335
681.32904	316
681.83923	317
682.34949	307
682.85968	325
683.36981	333
683.87994	324
684.39008	352
684.90015	311
685.41022	325
685.92023	339
686.43024	321
686.94025	321
687.4502	303
687.96014	332
688.47003	307
688.97992	335
689.48981	324
689.99963	318
690.50946	315
691.01923	299
691.52899	311
692.03876	331
692.54846	323
693.05817	320
693.56781	304
694.07745	322
694.58704	310
695.09662	319
695.6062	314
696.11572	323
696.62524	323
697.1347	309
697.64417	318
698.15363	332
698.66302	324
699.17242	306
699.68176	319
700.1911	306
700.70044	316
701.20972	319
701.71893	303
702.22815	309
702.73737	315
703.24652	322
703.75568	316
704.26483	304
704.77393	318
705.28302	324
705.79205	314
706.30103	304
706.81006	338
707.31903	287
707.82794	308
708.33685	328
708.84576	337
709.35461	326
709.86346	299
710.37225	307
710.88104	306
711.38977	322
711.8985	317
712.40723	315
712.91589	322
713.42456	312
713.93317	312
714.44177	327
714.95032	302
715.45886	305
715.96735	309
716.47583	305
716.98431	331
717.49274	313
718.00116	336
718.50952	312
719.01788	311
719.52618	311
720.03448	298
720.54272	300
721.05096	302
721.5592	307
722.06738	322
722.57556	305
723.08368	300
723.59174	297
724.09985	311
724.60791	312
725.11591	294
725.6239	343
726.13184	320
726.63977	315
727.14771	296
727.65558	323
728.16339	323
728.67126	332
729.17902	320
729.68683	342
730.19452	308
730.70227	325
731.2099	342
731.71759	306
732.22522	305
732.73279	324
733.24036	318
733.74792	317
734.25543	328
734.76288	334
735.27032	301
735.77777	334
736.28516	317
736.79254	311
737.29987	316
737.80719	328
738.31445	324
738.82172	319
739.32892	326
739.83612	322
740.34326	325
740.8504	321
741.35748	310
741.86456	299
742.37164	304
742.87866	329
743.38562	323
743.89258	319
744.39954	320
744.90643	332
745.41327	315
745.9201	320
746.42694	318
746.93372	319
747.44049	304
747.9472	324
748.45386	303
748.96057	331
749.46716	315
749.97375	313
750.48035	310
750.98688	311
751.49341	297
751.99988	333
752.50635	316
753.01276	321
753.51917	319
754.02551	324
754.53186	331
755.03815	313
755.54443	324
756.05066	333
756.55688	309
757.06305	334
757.56921	342
758.07532	323
758.58142	311
759.08746	315
759.59351	313
760.09949	295
760.60547	301
761.11139	295
761.61725	322
762.12317	316
762.62897	303
763.13483	312
763.64056	307
764.1463	309
764.65204	316
765.15771	324
765.66339	292
766.16901	309
766.67462	326
767.18018	324
767.68567	320
768.19116	325
768.69666	328
769.20209	324
769.70746	313
770.21283	313
770.7182	308
771.22351	310
771.72876	311
772.23401	327
772.73926	316
773.24445	313
773.74957	329
774.2547	309
774.75977	311
775.26483	312
775.76984	311
776.27484	340
776.77979	325
777.28473	305
777.78961	304
778.29449	314
778.79932	321
779.30408	332
779.80884	309
780.3136	322
780.8183	296
781.32294	313
781.82758	306
782.33215	327
782.83673	333
783.34131	320
783.84576	302
784.35028	328
784.85468	328
785.35907	292
785.86346	304
786.3678	294
786.87213	339
787.3764	331
787.88062	315
788.38483	313
788.88898	305
789.39313	297
789.89722	308
790.40131	311
790.90533	314
791.40936	316
791.91333	321
792.4173	310
792.9212	308
793.42505	309
793.92889	331
794.43268	305
794.93646	306
795.44019	315
795.94391	297
796.44757	305
796.95123	313
797.45483	319
797.95837	323
798.46191	316
798.96539	330
799.46887	290
799.97235	304
800.47571	298
800.97906	325
801.48242	310
801.98572	335
802.48895	317
802.99219	313
803.49536	296
803.99854	331
804.50165	331
805.00476	303
805.50781	305
806.01086	317
806.51379	323
807.01678	304
807.51971	322
808.02258	302
808.52539	294
809.02826	293
809.53101	322
810.03375	329
810.53644	306
811.03912	311
811.54175	311
812.04437	338
812.54694	320
813.04944	321
813.55194	319
814.05444	320
814.55682	316
815.05927	307
815.56158	297
816.0639	318
816.56622	300
817.06842	322
817.57068	312
818.07281	309
818.57495	303
819.07709	318
819.57916	306
820.08118	312
820.58319	321
821.08514	302
821.5871	329
822.08899	311
822.59082	308
823.09265	307
823.59442	309
824.09619	314
824.5979	290
825.09955	297
825.6012	317
826.10278	314
826.60437	318
827.1059	321
827.60736	309
828.10883	310
828.61023	300
829.11163	325
829.61298	314
830.11432	307
830.61554	301
831.11682	320
831.61798	318
832.11914	301
832.6203	320
833.1214	315
833.62244	298
834.12347	297
834.62445	305
835.12537	312
835.62628	308
836.12714	315
836.62799	334
837.12878	299
837.62952	302
838.13025	331
838.63092	311
839.13153	320
839.63214	320
840.13275	305
840.63324	301
841.13373	296
841.63422	307
842.13464	324
842.63501	322
843.13538	322
843.63568	308
844.13593	313
844.63617	318
845.13635	315
845.63647	326
846.1366	324
846.63672	321
847.13672	328
847.63672	327
848.13672	310
848.6366	308
849.13647	310
849.63635	319
850.13617	312
850.63593	312
851.13568	333
851.63538	301
852.13501	314
852.63464	289
853.13422	345
853.63373	305
854.13324	324
854.63275	333
855.13214	311
855.63153	307
856.13086	309
856.63019	308
857.12946	315
857.62866	328
858.12787	327
858.62701	319
859.12616	313
859.62524	305
860.12427	324
860.62323	311
861.12219	302
861.62109	344
862.12	318
862.61884	320
863.11761	315
863.61639	304
864.11511	305
864.61377	317
865.11243	324
865.61102	320
866.10962	326
866.60809	312
867.10663	311
867.60504	299
868.10345	309
868.60181	314
869.10016	316
869.59839	319
870.09668	349
870.59485	348
871.09302	383
871.59113	376
872.08923	423
872.58728	415
873.08527	421
873.58325	464
874.08118	436
874.57904	446
875.0769	436
875.57465	450
876.07245	433
876.57013	448
877.06781	452
877.56549	427
878.06305	450
878.56061	439
879.05817	450
879.5556	434
880.05304	461
880.55042	441
881.04779	484
881.5451	463
882.04236	450
882.53961	456
883.0368	490
883.53394	481
884.03107	485
884.52808	472
885.02515	481
