Date and Time:                Thu Oct 30 08:36:15.720 2025
Software Version:             4.30.30000.0
Temperature (C):              -90
Model:                        DU971P_UVB
Data Type:                    Counts
Acquisition Mode:             Single Scan
Trigger Mode:                 Internal
Exposure Time (secs):         30
Readout Mode:                 Full Vertical Binning
Horizontal binning:           2
Extended Dynamic Range:       off
Horizontally flipped:         false
Vertical Shift Speed (usecs): 9.68
Pixel Readout Rate (MHz):     3
Baseline Clamp:               ON
Clock Amplitude:              Normal
Output Amplifier:             Conventional
Serial Number:                20367
Pre-Amplifier Gain:           4x
Spurious Noise Filter Mode:   No Filter
Photon counted:               false
Data Averaging Filter Mode:   No Filter
SR193i:
Serial Number:                SR-2646
Wavelength (nm):              690
Grating Groove Density (l/mm):300
Grating Blaze:                500nm
Input Side Slit Width (um):   1000



478.32681	278
478.84332	340
479.35983	321
479.87631	327
480.39282	307
480.9093	344
481.42575	329
481.94223	339
482.45868	327
482.97513	323
483.49158	327
484.00803	323
484.52444	350
485.04086	321
485.55728	329
486.07367	325
486.59006	339
487.10645	344
487.62283	315
488.13919	338
488.65555	340
489.17191	367
489.68826	343
490.20459	336
490.72092	337
491.23724	327
491.75354	351
492.26984	340
492.78613	335
493.30243	330
493.8187	347
494.33496	360
494.85123	318
495.36746	346
495.8837	340
496.39993	345
496.91617	351
497.43237	357
497.94858	379
498.46478	376
498.98096	372
499.49713	339
500.01331	370
500.52945	363
501.04562	336
501.56174	348
502.07788	377
502.59399	330
503.11011	354
503.62622	358
504.1423	346
504.65839	326
505.17447	351
505.69052	334
506.20657	358
506.72263	348
507.23865	327
507.75467	339
508.27069	358
508.78668	348
509.30267	350
509.81866	358
510.33463	350
510.85059	345
511.36655	355
511.88248	336
512.39844	358
512.91437	336
513.43024	352
513.94617	348
514.46204	352
514.97791	351
515.49377	372
516.00964	349
516.52551	354
517.04132	369
517.55719	358
518.073	343
518.58881	344
519.10461	362
519.62036	346
520.13617	336
520.65192	339
521.16766	369
521.68341	345
522.1991	377
522.71484	356
523.23053	366
523.74622	347
524.2619	358
524.77759	327
525.29327	343
525.8089	345
526.32452	351
526.84015	355
527.35577	355
527.8714	372
528.38696	352
528.90259	354
529.41815	385
529.93372	312
530.44922	319
530.96478	381
531.48029	353
531.99579	343
532.51129	351
533.02679	348
533.5423	313
534.05774	368
534.57318	343
535.08862	363
535.60406	351
536.11945	349
536.63489	339
537.15027	357
537.66565	347
538.18097	361
538.69635	352
539.21167	339
539.72699	334
540.24231	359
540.75763	368
541.27289	372
541.78821	345
542.30347	349
542.81873	352
543.33392	341
543.84918	359
544.36438	359
544.87958	340
545.39478	356
545.90991	348
546.42511	332
546.94025	344
547.45538	356
547.97052	354
548.4856	325
549.00073	331
549.51581	343
550.03088	339
550.5459	320
551.06097	352
551.57599	354
552.091	367
552.60602	333
553.12097	340
553.63593	337
554.15094	340
554.66583	309
555.18079	330
555.69568	358
556.21063	329
556.72552	319
557.24036	338
557.75525	335
558.27008	355
558.78491	331
559.29974	344
559.81458	351
560.32935	324
560.84412	329
561.35889	336
561.87366	318
562.38837	348
562.90308	347
563.41779	355
563.9325	345
564.44714	304
564.96179	348
565.47644	320
565.99109	345
566.50574	347
567.02032	348
567.53491	343
568.0495	319
568.56403	334
569.07861	352
569.59314	362
570.1076	320
570.62213	345
571.1366	314
571.65106	327
572.16553	340
572.67999	338
573.1944	335
573.7088	341
574.22321	331
574.73755	339
575.25195	347
575.7663	337
576.28058	364
576.79492	339
577.3092	349
577.82349	328
578.33777	339
578.85205	316
579.36627	334
579.88049	346
580.39471	325
580.90887	343
581.42303	312
581.93719	336
582.45135	333
582.96545	355
583.47955	334
583.99365	303
584.50775	334
585.02179	338
585.53583	348
586.04987	329
586.5639	328
587.07788	331
587.59186	334
588.10583	335
588.61975	332
589.13373	342
589.64758	314
590.1615	318
590.67542	319
591.18927	323
591.70306	321
592.21692	322
592.73071	377
593.24451	311
593.7583	316
594.27209	340
594.78583	326
595.29956	315
595.81323	345
596.32697	319
596.84064	337
597.35425	357
597.86792	321
598.38153	337
598.89514	319
599.40875	327
599.9223	317
600.43585	328
600.9494	333
601.46289	352
601.97638	341
602.48987	322
603.00336	362
603.51678	347
604.03021	340
604.54364	327
605.05701	320
605.57043	333
606.08374	318
606.59711	317
607.11041	331
607.62372	341
608.13702	315
608.65027	305
609.16351	318
609.67676	329
610.19	309
610.70319	332
611.21637	353
611.72949	327
612.24268	347
612.75574	324
613.26886	318
613.78192	325
614.29504	335
614.80804	331
615.32111	348
615.83411	309
616.34711	338
616.86005	318
617.37299	342
617.88593	367
618.39886	344
618.91174	332
619.42462	327
619.9375	338
620.45032	339
620.96313	312
621.47595	335
621.98871	353
622.50146	325
623.01422	333
623.52692	329
624.03967	344
624.55231	322
625.065	313
625.57764	328
626.09027	332
626.60284	339
627.11542	354
627.62799	323
628.14056	323
628.65308	323
629.16559	330
629.6781	311
630.19055	327
630.703	334
631.21539	311
631.72784	344
632.24017	331
632.75256	328
633.26489	312
633.77722	317
634.28955	348
634.80182	321
635.31409	323
635.82635	311
636.33856	331
636.85077	354
637.36292	312
637.87512	339
638.38721	324
638.89935	342
639.41144	320
639.92352	321
640.43561	334
640.94763	325
641.45966	344
641.97162	316
642.48358	327
642.99554	333
643.50751	338
644.01941	327
644.53131	332
645.04315	342
645.55499	316
646.06683	339
646.57861	336
647.09045	327
647.60217	356
648.11395	315
648.62567	311
649.13733	314
649.64905	351
650.16064	327
650.6723	327
651.1839	325
651.6955	333
652.20709	345
652.71863	337
653.23016	333
653.74164	331
654.25311	329
654.76459	322
655.276	307
655.78741	323
656.29883	317
656.81018	315
657.32153	340
657.83289	294
658.34418	338
658.85547	320
659.3667	336
659.87793	326
660.38916	326
660.90033	323
661.4115	321
661.92267	329
662.43378	342
662.94489	335
663.45593	326
663.96698	329
664.47803	323
664.98907	333
665.50006	317
666.01099	315
666.52191	320
667.03284	320
667.54376	318
668.05463	350
668.56549	328
669.07629	337
669.5871	331
670.0979	302
670.60864	330
671.11938	326
671.63007	315
672.14075	312
672.65143	321
673.16205	327
673.67267	332
674.18329	324
674.69385	325
675.20435	330
675.7149	297
676.2254	310
676.73584	322
677.24628	326
677.75671	317
678.26715	324
678.77753	351
679.28784	331
679.79822	319
680.30847	296
680.81879	303
681.32904	324
681.83923	327
682.34949	339
682.85968	337
683.36981	311
683.87994	315
684.39008	316
684.90015	316
685.41022	308
685.92023	308
686.43024	352
686.94025	329
687.4502	336
687.96014	316
688.47003	330
688.97992	310
689.48981	339
689.99963	343
690.50946	329
691.01923	336
691.52899	325
692.03876	320
692.54846	302
693.05817	313
693.56781	304
694.07745	294
694.58704	312
695.09662	338
695.6062	304
696.11572	337
696.62524	308
697.1347	314
697.64417	321
698.15363	323
698.66302	316
699.17242	328
699.68176	306
700.1911	322
700.70044	312
701.20972	343
701.71893	322
702.22815	309
702.73737	326
703.24652	328
703.75568	310
704.26483	328
704.77393	313
705.28302	327
705.79205	336
706.30103	311
706.81006	301
707.31903	319
707.82794	325
708.33685	339
708.84576	306
709.35461	309
709.86346	327
710.37225	303
710.88104	306
711.38977	310
711.8985	330
712.40723	314
712.91589	315
713.42456	328
713.93317	321
714.44177	310
714.95032	311
715.45886	338
715.96735	303
716.47583	319
716.98431	305
717.49274	327
718.00116	325
718.50952	319
719.01788	305
719.52618	314
720.03448	326
720.54272	308
721.05096	312
721.5592	319
722.06738	315
722.57556	311
723.08368	309
723.59174	310
724.09985	309
724.60791	307
725.11591	306
725.6239	303
726.13184	317
726.63977	302
727.14771	334
727.65558	325
728.16339	337
728.67126	318
729.17902	326
729.68683	315
730.19452	299
730.70227	312
731.2099	308
731.71759	329
732.22522	333
732.73279	325
733.24036	319
733.74792	364
734.25543	318
734.76288	322
735.27032	327
735.77777	321
736.28516	329
736.79254	302
737.29987	303
737.80719	349
738.31445	335
738.82172	307
739.32892	336
739.83612	324
740.34326	310
740.8504	332
741.35748	317
741.86456	329
742.37164	318
742.87866	307
743.38562	300
743.89258	322
744.39954	334
744.90643	319
745.41327	321
745.9201	313
746.42694	327
746.93372	321
747.44049	320
747.9472	335
748.45386	284
748.96057	321
749.46716	311
749.97375	322
750.48035	324
750.98688	306
751.49341	329
751.99988	316
752.50635	292
753.01276	325
753.51917	322
754.02551	326
754.53186	293
755.03815	324
755.54443	314
756.05066	322
756.55688	313
757.06305	302
757.56921	296
758.07532	312
758.58142	304
759.08746	335
759.59351	308
760.09949	312
760.60547	304
761.11139	312
761.61725	327
762.12317	332
762.62897	333
763.13483	322
763.64056	331
764.1463	304
764.65204	325
765.15771	312
765.66339	312
766.16901	332
766.67462	336
767.18018	316
767.68567	296
768.19116	306
768.69666	323
769.20209	323
769.70746	317
770.21283	316
770.7182	317
771.22351	317
771.72876	308
772.23401	303
772.73926	311
773.24445	312
773.74957	323
774.2547	321
774.75977	308
775.26483	316
775.76984	322
776.27484	322
776.77979	310
777.28473	308
777.78961	310
778.29449	293
778.79932	299
779.30408	299
779.80884	301
780.3136	293
780.8183	332
781.32294	317
781.82758	306
782.33215	319
782.83673	316
783.34131	315
783.84576	309
784.35028	324
784.85468	299
785.35907	319
785.86346	317
786.3678	307
786.87213	321
787.3764	314
787.88062	306
788.38483	318
788.88898	340
789.39313	293
789.89722	322
790.40131	336
790.90533	326
791.40936	323
791.91333	328
792.4173	309
792.9212	319
793.42505	313
793.92889	338
794.43268	308
794.93646	341
795.44019	326
795.94391	319
796.44757	324
796.95123	311
797.45483	321
797.95837	306
798.46191	308
798.96539	304
799.46887	320
799.97235	345
800.47571	303
800.97906	304
801.48242	303
801.98572	300
802.48895	325
802.99219	326
803.49536	317
803.99854	321
804.50165	338
805.00476	308
805.50781	308
806.01086	352
806.51379	333
807.01678	323
807.51971	316
808.02258	334
808.52539	317
809.02826	300
809.53101	331
810.03375	308
810.53644	321
811.03912	311
811.54175	316
812.04437	333
812.54694	332
813.04944	309
813.55194	308
814.05444	329
814.55682	317
815.05927	311
815.56158	296
816.0639	318
816.56622	301
817.06842	314
817.57068	303
818.07281	323
818.57495	330
819.07709	316
819.57916	317
820.08118	321
820.58319	333
821.08514	319
821.5871	321
822.08899	312
822.59082	317
823.09265	318
823.59442	304
824.09619	316
824.5979	348
825.09955	322
825.6012	335
826.10278	334
826.60437	328
827.1059	332
827.60736	331
828.10883	322
828.61023	327
829.11163	335
829.61298	325
830.11432	299
830.61554	313
831.11682	327
831.61798	316
832.11914	328
832.6203	309
833.1214	320
833.62244	326
834.12347	324
834.62445	322
835.12537	335
835.62628	338
836.12714	306
836.62799	313
837.12878	306
837.62952	313
838.13025	335
838.63092	323
839.13153	340
839.63214	296
840.13275	320
840.63324	304
841.13373	315
841.63422	316
842.13464	307
842.63501	302
843.13538	305
843.63568	317
844.13593	309
844.63617	311
845.13635	315
845.63647	322
846.1366	345
846.63672	318
847.13672	335
847.63672	321
848.13672	336
848.6366	318
849.13647	324
849.63635	334
850.13617	338
850.63593	312
851.13568	316
851.63538	324
852.13501	322
852.63464	323
853.13422	1153
853.63373	616
854.13324	307
854.63275	299
855.13214	326
855.63153	318
856.13086	318
856.63019	313
857.12946	332
857.62866	311
858.12787	322
858.62701	333
859.12616	323
859.62524	299
860.12427	308
860.62323	338
861.12219	329
861.62109	329
862.12	337
862.61884	307
863.11761	326
863.61639	329
864.11511	327
864.61377	344
865.11243	294
865.61102	312
866.10962	305
866.60809	335
867.10663	322
867.60504	311
868.10345	306
868.60181	329
869.10016	331
869.59839	334
870.09668	318
870.59485	375
871.09302	366
871.59113	397
872.08923	432
872.58728	424
873.08527	439
873.58325	423
874.08118	453
874.57904	442
875.0769	458
875.57465	458
876.07245	425
876.57013	464
877.06781	446
877.56549	443
878.06305	438
878.56061	477
879.05817	473
879.5556	455
880.05304	438
880.55042	470
881.04779	473
881.5451	467
882.04236	478
882.53961	451
883.0368	446
883.53394	463
884.03107	461
884.52808	509
885.02515	422
