Date and Time:                Wed Oct 22 09:40:03.283 2025
Software Version:             4.30.30000.0
Unstabilized Temperature (C): -88.982
Model:                        DU971P_UVB
Data Type:                    Counts
Acquisition Mode:             Single Scan
Trigger Mode:                 Internal
Exposure Time (secs):         30
Readout Mode:                 Full Vertical Binning
Horizontal binning:           2
Extended Dynamic Range:       off
Horizontally flipped:         false
Vertical Shift Speed (usecs): 9.68
Pixel Readout Rate (MHz):     3
Baseline Clamp:               ON
Clock Amplitude:              Normal
Output Amplifier:             Conventional
Serial Number:                20367
Pre-Amplifier Gain:           4x
Spurious Noise Filter Mode:   No Filter
Photon counted:               false
Data Averaging Filter Mode:   No Filter
SR193i:
Serial Number:                SR-2646
Wavelength (nm):              690
Grating Groove Density (l/mm):300
Grating Blaze:                500nm
Input Side Slit Width (um):   1000



478.32681	336
478.84332	371
479.35983	386
479.87631	393
480.39282	394
480.9093	369
481.42575	387
481.94223	392
482.45868	379
482.97513	390
483.49158	388
484.00803	400
484.52444	431
485.04086	427
485.55728	420
486.07367	428
486.59006	451
487.10645	470
487.62283	486
488.13919	498
488.65555	514
489.17191	498
489.68826	547
490.20459	586
490.72092	582
491.23724	551
491.75354	585
492.26984	575
492.78613	584
493.30243	639
493.8187	626
494.33496	615
494.85123	644
495.36746	686
495.8837	634
496.39993	643
496.91617	653
497.43237	722
497.94858	689
498.46478	757
498.98096	766
499.49713	712
500.01331	736
500.52945	790
501.04562	728
501.56174	730
502.07788	755
502.59399	726
503.11011	726
503.62622	736
504.1423	716
504.65839	739
505.17447	761
505.69052	765
506.20657	748
506.72263	717
507.23865	736
507.75467	723
508.27069	795
508.78668	702
509.30267	759
509.81866	721
510.33463	706
510.85059	737
511.36655	759
511.88248	706
512.39844	767
512.91437	721
513.43024	727
513.94617	725
514.46204	717
514.97791	749
515.49377	730
516.00964	741
516.52551	723
517.04132	715
517.55719	701
518.073	678
518.58881	729
519.10461	734
519.62036	717
520.13617	696
520.65192	700
521.16766	729
521.68341	724
522.1991	702
522.71484	707
523.23053	690
523.74622	709
524.2619	707
524.77759	680
525.29327	719
525.8089	731
526.32452	657
526.84015	658
527.35577	656
527.8714	697
528.38696	720
528.90259	669
529.41815	703
529.93372	730
530.44922	680
530.96478	636
531.48029	683
531.99579	689
532.51129	699
533.02679	635
533.5423	676
534.05774	677
534.57318	676
535.08862	720
535.60406	703
536.11945	711
536.63489	700
537.15027	660
537.66565	717
538.18097	746
538.69635	705
539.21167	668
539.72699	674
540.24231	727
540.75763	670
541.27289	700
541.78821	699
542.30347	728
542.81873	695
543.33392	747
543.84918	735
544.36438	734
544.87958	691
545.39478	712
545.90991	740
546.42511	764
546.94025	678
547.45538	767
547.97052	773
548.4856	757
549.00073	800
549.51581	724
550.03088	789
550.5459	750
551.06097	764
551.57599	865
552.091	772
552.60602	784
553.12097	778
553.63593	825
554.15094	786
554.66583	795
555.18079	815
555.69568	819
556.21063	835
556.72552	821
557.24036	825
557.75525	902
558.27008	888
558.78491	849
559.29974	868
559.81458	909
560.32935	874
560.84412	869
561.35889	988
561.87366	954
562.38837	953
562.90308	967
563.41779	957
563.9325	909
564.44714	928
564.96179	950
565.47644	926
565.99109	944
566.50574	996
567.02032	985
567.53491	970
568.0495	960
568.56403	998
569.07861	1004
569.59314	1027
570.1076	1129
570.62213	1045
571.1366	1032
571.65106	1058
572.16553	1064
572.67999	1096
573.1944	1132
573.7088	1001
574.22321	1166
574.73755	1093
575.25195	1101
575.7663	1106
576.28058	1140
576.79492	1108
577.3092	1132
577.82349	1140
578.33777	1165
578.85205	1110
579.36627	1186
579.88049	1203
580.39471	1200
580.90887	1160
581.42303	1172
581.93719	1176
582.45135	1219
582.96545	1147
583.47955	1207
583.99365	1217
584.50775	1190
585.02179	1321
585.53583	1311
586.04987	1286
586.5639	1224
587.07788	1253
587.59186	1208
588.10583	1330
588.61975	1289
589.13373	1269
589.64758	1278
590.1615	1335
590.67542	1286
591.18927	1280
591.70306	1304
592.21692	1275
592.73071	1235
593.24451	1266
593.7583	1356
594.27209	1348
594.78583	1321
595.29956	1299
595.81323	1337
596.32697	1332
596.84064	1295
597.35425	1310
597.86792	1370
598.38153	1403
598.89514	1338
599.40875	1322
599.9223	1299
600.43585	1352
600.9494	1315
601.46289	1364
601.97638	1372
602.48987	1383
603.00336	1341
603.51678	1317
604.03021	1305
604.54364	1310
605.05701	1376
605.57043	1362
606.08374	1360
606.59711	1295
607.11041	1333
607.62372	1404
608.13702	1406
608.65027	1383
609.16351	1339
609.67676	1324
610.19	1313
610.70319	1354
611.21637	1337
611.72949	1377
612.24268	1300
612.75574	1351
613.26886	1405
613.78192	1247
614.29504	1299
614.80804	1355
615.32111	1348
615.83411	1321
616.34711	1277
616.86005	1294
617.37299	1338
617.88593	1375
618.39886	1325
618.91174	1320
619.42462	1316
619.9375	1330
620.45032	1341
620.96313	1322
621.47595	1304
621.98871	1325
622.50146	1370
623.01422	1369
623.52692	1288
624.03967	1343
624.55231	1353
625.065	1369
625.57764	1381
626.09027	1411
626.60284	1385
627.11542	1291
627.62799	1324
628.14056	1367
628.65308	1312
629.16559	1313
629.6781	1364
630.19055	1347
630.703	1417
631.21539	1350
631.72784	1399
632.24017	1460
632.75256	1449
633.26489	1399
633.77722	1400
634.28955	1420
634.80182	1434
635.31409	1348
635.82635	1434
636.33856	1422
636.85077	1426
637.36292	1480
637.87512	1465
638.38721	1454
638.89935	1439
639.41144	1520
639.92352	1494
640.43561	1614
640.94763	1525
641.45966	1519
641.97162	1499
642.48358	1557
642.99554	1603
643.50751	1607
644.01941	1632
644.53131	1698
645.04315	1716
645.55499	1768
646.06683	1693
646.57861	1645
647.09045	1775
647.60217	1837
648.11395	1810
648.62567	1876
649.13733	1909
649.64905	1908
650.16064	1912
650.6723	2008
651.1839	2016
651.6955	1930
652.20709	2028
652.71863	2011
653.23016	2085
653.74164	2087
654.25311	2115
654.76459	2167
655.276	2144
655.78741	2185
656.29883	2296
656.81018	2279
657.32153	2401
657.83289	2391
658.34418	2388
658.85547	2452
659.3667	2494
659.87793	2573
660.38916	2477
660.90033	2537
661.4115	2599
661.92267	2655
662.43378	2661
662.94489	2829
663.45593	2735
663.96698	2855
664.47803	2999
664.98907	2881
665.50006	3006
666.01099	2956
666.52191	3210
667.03284	3062
667.54376	3084
668.05463	3276
668.56549	3226
669.07629	3316
669.5871	3219
670.0979	3325
670.60864	3378
671.11938	3487
671.63007	3392
672.14075	3380
672.65143	3621
673.16205	3427
673.67267	3641
674.18329	3628
674.69385	3703
675.20435	3747
675.7149	3787
676.2254	3822
676.73584	3850
677.24628	3882
677.75671	3880
678.26715	3758
678.77753	3965
679.28784	3983
679.79822	3929
680.30847	3980
680.81879	4149
681.32904	4105
681.83923	4148
682.34949	4058
682.85968	4213
683.36981	4307
683.87994	4251
684.39008	4355
684.90015	4329
685.41022	4309
685.92023	4391
686.43024	4373
686.94025	4721
687.4502	4473
687.96014	4597
688.47003	4455
688.97992	4738
689.48981	4646
689.99963	4732
690.50946	4805
691.01923	4790
691.52899	4834
692.03876	4709
692.54846	4831
693.05817	4693
693.56781	4799
694.07745	4743
694.58704	4870
695.09662	4997
695.6062	5117
696.11572	4934
696.62524	5114
697.1347	5091
697.64417	5004
698.15363	5066
698.66302	5155
699.17242	5096
699.68176	5329
700.1911	5123
700.70044	5137
701.20972	5103
701.71893	5253
702.22815	5284
702.73737	5152
703.24652	5208
703.75568	5256
704.26483	5344
704.77393	5285
705.28302	5356
705.79205	5382
706.30103	5255
706.81006	5307
707.31903	5246
707.82794	5432
708.33685	5478
708.84576	5331
709.35461	5387
709.86346	5319
710.37225	5238
710.88104	5454
711.38977	5227
711.8985	5262
712.40723	5356
712.91589	5211
713.42456	5402
713.93317	5237
714.44177	5060
714.95032	5379
715.45886	5426
715.96735	5195
716.47583	5276
716.98431	5350
717.49274	5178
718.00116	5197
718.50952	5253
719.01788	5285
719.52618	5304
720.03448	5277
720.54272	5326
721.05096	5154
721.5592	5269
722.06738	5431
722.57556	5336
723.08368	5241
723.59174	5317
724.09985	5234
724.60791	5227
725.11591	5246
725.6239	5155
726.13184	5200
726.63977	5272
727.14771	5263
727.65558	5215
728.16339	5282
728.67126	5302
729.17902	5286
729.68683	5093
730.19452	5308
730.70227	5198
731.2099	5153
731.71759	5056
732.22522	5203
732.73279	5246
733.24036	5141
733.74792	5079
734.25543	5033
734.76288	4987
735.27032	4940
735.77777	4987
736.28516	4911
736.79254	4974
737.29987	4855
737.80719	4809
738.31445	4867
738.82172	4654
739.32892	4620
739.83612	4633
740.34326	4640
740.8504	4641
741.35748	4686
741.86456	4619
742.37164	4610
742.87866	4564
743.38562	4559
743.89258	4502
744.39954	4560
744.90643	4394
745.41327	4421
745.9201	4368
746.42694	4293
746.93372	4306
747.44049	4313
747.9472	4303
748.45386	3936
748.96057	4236
749.46716	4191
749.97375	4156
750.48035	4145
750.98688	4012
751.49341	4018
751.99988	3984
752.50635	3957
753.01276	3929
753.51917	3954
754.02551	3970
754.53186	3789
755.03815	3693
755.54443	3733
756.05066	3727
756.55688	3733
757.06305	3785
757.56921	3570
758.07532	3841
758.58142	3630
759.08746	3691
759.59351	3568
760.09949	3512
760.60547	3582
761.11139	3599
761.61725	3468
762.12317	3501
762.62897	3289
763.13483	3310
763.64056	3258
764.1463	3323
764.65204	3203
765.15771	3196
765.66339	3206
766.16901	3137
766.67462	3228
767.18018	3141
767.68567	3113
768.19116	3134
768.69666	3138
769.20209	3030
769.70746	2939
770.21283	2952
770.7182	2834
771.22351	2843
771.72876	2782
772.23401	2670
772.73926	2688
773.24445	2808
773.74957	2730
774.2547	2645
774.75977	2621
775.26483	2624
775.76984	2459
776.27484	2593
776.77979	2589
777.28473	2457
777.78961	2319
778.29449	2506
778.79932	2475
779.30408	2406
779.80884	2354
780.3136	2440
780.8183	2357
781.32294	2266
781.82758	2208
782.33215	2319
782.83673	2267
783.34131	2209
783.84576	2117
784.35028	2165
784.85468	2172
785.35907	2116
785.86346	2055
786.3678	2031
786.87213	2047
787.3764	2007
787.88062	1933
788.38483	2072
788.88898	2011
789.39313	1976
789.89722	1858
790.40131	1922
790.90533	1888
791.40936	1760
791.91333	1883
792.4173	1806
792.9212	1765
793.42505	1782
793.92889	1789
794.43268	1726
794.93646	1750
795.44019	1701
795.94391	1708
796.44757	1715
796.95123	1698
797.45483	1655
797.95837	1645
798.46191	1541
798.96539	1508
799.46887	1622
799.97235	1522
800.47571	1550
800.97906	1559
801.48242	1556
801.98572	1577
802.48895	1517
802.99219	1467
803.49536	1403
803.99854	1416
804.50165	1436
805.00476	1435
805.50781	1359
806.01086	1387
806.51379	1314
807.01678	1368
807.51971	1395
808.02258	1354
808.52539	1316
809.02826	1326
809.53101	1260
810.03375	1245
810.53644	1282
811.03912	1280
811.54175	1240
812.04437	1244
812.54694	1231
813.04944	1247
813.55194	1194
814.05444	1141
814.55682	1136
815.05927	1124
815.56158	1140
816.0639	1225
816.56622	1088
817.06842	1179
817.57068	1140
818.07281	1113
818.57495	1078
819.07709	1019
819.57916	1123
820.08118	1025
820.58319	1025
821.08514	1047
821.5871	1037
822.08899	1015
822.59082	1078
823.09265	1115
823.59442	969
824.09619	1019
824.5979	1016
825.09955	927
825.6012	978
826.10278	928
826.60437	994
827.1059	987
827.60736	976
828.10883	997
828.61023	934
829.11163	945
829.61298	955
830.11432	926
830.61554	909
831.11682	928
831.61798	880
832.11914	840
832.6203	928
833.1214	880
833.62244	828
834.12347	907
834.62445	890
835.12537	854
835.62628	862
836.12714	869
836.62799	809
837.12878	912
837.62952	811
838.13025	807
838.63092	827
839.13153	797
839.63214	838
840.13275	818
840.63324	782
841.13373	754
841.63422	840
842.13464	765
842.63501	809
843.13538	765
843.63568	750
844.13593	753
844.63617	764
845.13635	757
845.63647	787
846.1366	720
846.63672	732
847.13672	763
847.63672	771
848.13672	746
848.6366	726
849.13647	783
849.63635	715
850.13617	753
850.63593	721
851.13568	708
851.63538	720
852.13501	674
852.63464	710
853.13422	735
853.63373	700
854.13324	669
854.63275	724
855.13214	640
855.63153	702
856.13086	689
856.63019	736
857.12946	709
857.62866	712
858.12787	689
858.62701	667
859.12616	663
859.62524	703
860.12427	699
860.62323	675
861.12219	650
861.62109	651
862.12	708
862.61884	638
863.11761	646
863.61639	660
864.11511	641
864.61377	639
865.11243	631
865.61102	629
866.10962	658
866.60809	642
867.10663	639
867.60504	603
868.10345	673
868.60181	670
869.10016	609
869.59839	625
870.09668	706
870.59485	720
871.09302	787
871.59113	907
872.08923	959
872.58728	1001
873.08527	1075
873.58325	1098
874.08118	1098
874.57904	1101
875.0769	1082
875.57465	1067
876.07245	1104
876.57013	1033
877.06781	1126
877.56549	1094
878.06305	1075
878.56061	1019
879.05817	1136
879.5556	1081
880.05304	1189
880.55042	1075
881.04779	1113
881.5451	1079
882.04236	1145
882.53961	1066
883.0368	1077
883.53394	1103
884.03107	1086
884.52808	1114
885.02515	1064
