Date and Time:                Fri Oct 17 08:15:28.566 2025
Software Version:             4.30.30000.0
Temperature (C):              -90
Model:                        DU971P_UVB
Data Type:                    Counts
Acquisition Mode:             Single Scan
Trigger Mode:                 Internal
Exposure Time (secs):         30
Readout Mode:                 Full Vertical Binning
Horizontal binning:           2
Extended Dynamic Range:       off
Horizontally flipped:         false
Vertical Shift Speed (usecs): 9.68
Pixel Readout Rate (MHz):     3
Baseline Clamp:               ON
Clock Amplitude:              Normal
Output Amplifier:             Conventional
Serial Number:                20367
Pre-Amplifier Gain:           4x
Spurious Noise Filter Mode:   No Filter
Photon counted:               false
Data Averaging Filter Mode:   No Filter
SR193i:
Serial Number:                SR-2646
Wavelength (nm):              690
Grating Groove Density (l/mm):300
Grating Blaze:                500nm
Input Side Slit Width (um):   1000



478.32681	271
478.84332	330
479.35983	337
479.87631	326
480.39282	322
480.9093	331
481.42575	370
481.94223	304
482.45868	338
482.97513	335
483.49158	326
484.00803	310
484.52444	341
485.04086	348
485.55728	331
486.07367	304
486.59006	336
487.10645	344
487.62283	332
488.13919	330
488.65555	319
489.17191	330
489.68826	314
490.20459	346
490.72092	357
491.23724	345
491.75354	329
492.26984	336
492.78613	314
493.30243	348
493.8187	331
494.33496	360
494.85123	344
495.36746	356
495.8837	357
496.39993	362
496.91617	337
497.43237	362
497.94858	359
498.46478	352
498.98096	347
499.49713	343
500.01331	350
500.52945	367
501.04562	337
501.56174	367
502.07788	341
502.59399	349
503.11011	357
503.62622	338
504.1423	344
504.65839	348
505.17447	340
505.69052	357
506.20657	346
506.72263	337
507.23865	327
507.75467	345
508.27069	349
508.78668	352
509.30267	357
509.81866	356
510.33463	341
510.85059	372
511.36655	326
511.88248	359
512.39844	336
512.91437	350
513.43024	334
513.94617	362
514.46204	337
514.97791	322
515.49377	339
516.00964	357
516.52551	340
517.04132	347
517.55719	328
518.073	366
518.58881	342
519.10461	338
519.62036	344
520.13617	356
520.65192	352
521.16766	348
521.68341	360
522.1991	344
522.71484	326
523.23053	343
523.74622	337
524.2619	364
524.77759	353
525.29327	351
525.8089	345
526.32452	337
526.84015	339
527.35577	344
527.8714	348
528.38696	340
528.90259	335
529.41815	355
529.93372	356
530.44922	356
530.96478	364
531.48029	341
531.99579	352
532.51129	334
533.02679	334
533.5423	328
534.05774	337
534.57318	345
535.08862	358
535.60406	352
536.11945	316
536.63489	352
537.15027	321
537.66565	331
538.18097	327
538.69635	332
539.21167	351
539.72699	350
540.24231	336
540.75763	346
541.27289	344
541.78821	354
542.30347	338
542.81873	325
543.33392	337
543.84918	359
544.36438	352
544.87958	340
545.39478	324
545.90991	325
546.42511	341
546.94025	333
547.45538	336
547.97052	339
548.4856	340
549.00073	336
549.51581	342
550.03088	343
550.5459	343
551.06097	375
551.57599	345
552.091	344
552.60602	347
553.12097	323
553.63593	349
554.15094	314
554.66583	323
555.18079	320
555.69568	331
556.21063	337
556.72552	343
557.24036	330
557.75525	338
558.27008	352
558.78491	310
559.29974	356
559.81458	334
560.32935	325
560.84412	342
561.35889	334
561.87366	359
562.38837	327
562.90308	328
563.41779	317
563.9325	327
564.44714	328
564.96179	335
565.47644	336
565.99109	340
566.50574	341
567.02032	322
567.53491	333
568.0495	346
568.56403	332
569.07861	325
569.59314	349
570.1076	323
570.62213	324
571.1366	341
571.65106	310
572.16553	315
572.67999	315
573.1944	334
573.7088	324
574.22321	330
574.73755	334
575.25195	354
575.7663	312
576.28058	321
576.79492	324
577.3092	336
577.82349	330
578.33777	320
578.85205	326
579.36627	327
579.88049	329
580.39471	354
580.90887	324
581.42303	352
581.93719	336
582.45135	354
582.96545	319
583.47955	320
583.99365	313
584.50775	329
585.02179	318
585.53583	340
586.04987	354
586.5639	327
587.07788	315
587.59186	341
588.10583	316
588.61975	352
589.13373	326
589.64758	339
590.1615	325
590.67542	323
591.18927	353
591.70306	300
592.21692	320
592.73071	331
593.24451	323
593.7583	329
594.27209	318
594.78583	313
595.29956	328
595.81323	322
596.32697	340
596.84064	328
597.35425	335
597.86792	324
598.38153	320
598.89514	339
599.40875	307
599.9223	329
600.43585	322
600.9494	337
601.46289	333
601.97638	331
602.48987	324
603.00336	349
603.51678	342
604.03021	322
604.54364	329
605.05701	326
605.57043	316
606.08374	344
606.59711	332
607.11041	325
607.62372	322
608.13702	312
608.65027	330
609.16351	306
609.67676	313
610.19	328
610.70319	335
611.21637	320
611.72949	329
612.24268	345
612.75574	312
613.26886	321
613.78192	343
614.29504	329
614.80804	320
615.32111	330
615.83411	318
616.34711	313
616.86005	335
617.37299	287
617.88593	306
618.39886	319
618.91174	311
619.42462	328
619.9375	324
620.45032	312
620.96313	294
621.47595	320
621.98871	331
622.50146	328
623.01422	353
623.52692	338
624.03967	335
624.55231	336
625.065	331
625.57764	331
626.09027	315
626.60284	322
627.11542	320
627.62799	313
628.14056	315
628.65308	323
629.16559	341
629.6781	304
630.19055	309
630.703	338
631.21539	340
631.72784	322
632.24017	332
632.75256	320
633.26489	327
633.77722	332
634.28955	306
634.80182	292
635.31409	305
635.82635	331
636.33856	317
636.85077	303
637.36292	325
637.87512	344
638.38721	313
638.89935	315
639.41144	330
639.92352	303
640.43561	328
640.94763	312
641.45966	307
641.97162	332
642.48358	317
642.99554	320
643.50751	335
644.01941	326
644.53131	318
645.04315	311
645.55499	327
646.06683	334
646.57861	320
647.09045	324
647.60217	303
648.11395	318
648.62567	357
649.13733	309
649.64905	339
650.16064	320
650.6723	331
651.1839	343
651.6955	315
652.20709	305
652.71863	317
653.23016	305
653.74164	340
654.25311	332
654.76459	314
655.276	315
655.78741	315
656.29883	330
656.81018	340
657.32153	308
657.83289	316
658.34418	321
658.85547	330
659.3667	311
659.87793	334
660.38916	331
660.90033	336
661.4115	320
661.92267	330
662.43378	329
662.94489	335
663.45593	297
663.96698	311
664.47803	316
664.98907	309
665.50006	318
666.01099	332
666.52191	339
667.03284	320
667.54376	311
668.05463	318
668.56549	317
669.07629	308
669.5871	325
670.0979	326
670.60864	323
671.11938	336
671.63007	332
672.14075	340
672.65143	335
673.16205	314
673.67267	328
674.18329	330
674.69385	306
675.20435	302
675.7149	322
676.2254	326
676.73584	320
677.24628	307
677.75671	332
678.26715	332
678.77753	308
679.28784	325
679.79822	323
680.30847	305
680.81879	327
681.32904	308
681.83923	347
682.34949	313
682.85968	308
683.36981	325
683.87994	312
684.39008	331
684.90015	295
685.41022	322
685.92023	339
686.43024	346
686.94025	336
687.4502	340
687.96014	327
688.47003	318
688.97992	292
689.48981	305
689.99963	317
690.50946	292
691.01923	312
691.52899	317
692.03876	327
692.54846	305
693.05817	326
693.56781	307
694.07745	310
694.58704	313
695.09662	337
695.6062	316
696.11572	319
696.62524	308
697.1347	299
697.64417	323
698.15363	325
698.66302	332
699.17242	323
699.68176	322
700.1911	311
700.70044	324
701.20972	327
701.71893	307
702.22815	304
702.73737	315
703.24652	324
703.75568	331
704.26483	332
704.77393	330
705.28302	329
705.79205	328
706.30103	332
706.81006	320
707.31903	315
707.82794	327
708.33685	315
708.84576	328
709.35461	298
709.86346	315
710.37225	311
710.88104	297
711.38977	309
711.8985	308
712.40723	332
712.91589	320
713.42456	322
713.93317	322
714.44177	325
714.95032	321
715.45886	328
715.96735	303
716.47583	322
716.98431	307
717.49274	339
718.00116	312
718.50952	312
719.01788	302
719.52618	302
720.03448	319
720.54272	306
721.05096	321
721.5592	324
722.06738	300
722.57556	316
723.08368	297
723.59174	309
724.09985	287
724.60791	332
725.11591	323
725.6239	303
726.13184	289
726.63977	318
727.14771	316
727.65558	314
728.16339	323
728.67126	311
729.17902	332
729.68683	314
730.19452	324
730.70227	317
731.2099	310
731.71759	342
732.22522	315
732.73279	320
733.24036	316
733.74792	325
734.25543	339
734.76288	316
735.27032	333
735.77777	314
736.28516	308
736.79254	319
737.29987	312
737.80719	319
738.31445	302
738.82172	317
739.32892	314
739.83612	308
740.34326	315
740.8504	310
741.35748	324
741.86456	315
742.37164	309
742.87866	325
743.38562	313
743.89258	313
744.39954	298
744.90643	299
745.41327	326
745.9201	315
746.42694	314
746.93372	328
747.44049	318
747.9472	319
748.45386	305
748.96057	329
749.46716	325
749.97375	309
750.48035	329
750.98688	324
751.49341	321
751.99988	316
752.50635	323
753.01276	325
753.51917	312
754.02551	330
754.53186	305
755.03815	320
755.54443	311
756.05066	315
756.55688	326
757.06305	322
757.56921	292
758.07532	333
758.58142	310
759.08746	322
759.59351	315
760.09949	300
760.60547	329
761.11139	350
761.61725	324
762.12317	298
762.62897	292
763.13483	326
763.64056	306
764.1463	316
764.65204	307
765.15771	322
765.66339	330
766.16901	309
766.67462	326
767.18018	314
767.68567	291
768.19116	298
768.69666	323
769.20209	321
769.70746	322
770.21283	321
770.7182	311
771.22351	336
771.72876	311
772.23401	329
772.73926	297
773.24445	315
773.74957	328
774.2547	307
774.75977	315
775.26483	323
775.76984	302
776.27484	323
776.77979	300
777.28473	322
777.78961	295
778.29449	299
778.79932	298
779.30408	312
779.80884	315
780.3136	319
780.8183	319
781.32294	294
781.82758	314
782.33215	325
782.83673	320
783.34131	324
783.84576	333
784.35028	300
784.85468	316
785.35907	320
785.86346	333
786.3678	328
786.87213	314
787.3764	320
787.88062	317
788.38483	310
788.88898	317
789.39313	315
789.89722	334
790.40131	332
790.90533	319
791.40936	316
791.91333	341
792.4173	317
792.9212	302
793.42505	315
793.92889	309
794.43268	322
794.93646	303
795.44019	322
795.94391	312
796.44757	306
796.95123	322
797.45483	315
797.95837	307
798.46191	320
798.96539	314
799.46887	328
799.97235	336
800.47571	309
800.97906	310
801.48242	293
801.98572	300
802.48895	314
802.99219	326
803.49536	327
803.99854	321
804.50165	314
805.00476	321
805.50781	339
806.01086	333
806.51379	316
807.01678	300
807.51971	317
808.02258	319
808.52539	324
809.02826	326
809.53101	306
810.03375	309
810.53644	331
811.03912	319
811.54175	304
812.04437	318
812.54694	301
813.04944	317
813.55194	311
814.05444	312
814.55682	323
815.05927	327
815.56158	323
816.0639	298
816.56622	314
817.06842	314
817.57068	333
818.07281	301
818.57495	322
819.07709	317
819.57916	325
820.08118	311
820.58319	333
821.08514	311
821.5871	319
822.08899	322
822.59082	312
823.09265	332
823.59442	308
824.09619	326
824.5979	325
825.09955	302
825.6012	301
826.10278	305
826.60437	304
827.1059	321
827.60736	323
828.10883	344
828.61023	327
829.11163	322
829.61298	315
830.11432	312
830.61554	322
831.11682	323
831.61798	314
832.11914	318
832.6203	302
833.1214	303
833.62244	334
834.12347	308
834.62445	332
835.12537	348
835.62628	326
836.12714	310
836.62799	320
837.12878	324
837.62952	321
838.13025	311
838.63092	297
839.13153	312
839.63214	301
840.13275	305
840.63324	300
841.13373	317
841.63422	305
842.13464	322
842.63501	315
843.13538	294
843.63568	329
844.13593	304
844.63617	338
845.13635	320
845.63647	311
846.1366	330
846.63672	292
847.13672	320
847.63672	300
848.13672	313
848.6366	323
849.13647	323
849.63635	338
850.13617	290
850.63593	306
851.13568	293
851.63538	318
852.13501	322
852.63464	310
853.13422	315
853.63373	319
854.13324	330
854.63275	315
855.13214	313
855.63153	302
856.13086	330
856.63019	305
857.12946	300
857.62866	310
858.12787	314
858.62701	319
859.12616	330
859.62524	320
860.12427	298
860.62323	317
861.12219	309
861.62109	343
862.12	304
862.61884	333
863.11761	294
863.61639	330
864.11511	327
864.61377	310
865.11243	329
865.61102	318
866.10962	297
866.60809	311
867.10663	316
867.60504	311
868.10345	324
868.60181	313
869.10016	302
869.59839	332
870.09668	346
870.59485	353
871.09302	370
871.59113	370
872.08923	418
872.58728	421
873.08527	465
873.58325	448
874.08118	455
874.57904	433
875.0769	408
875.57465	431
876.07245	448
876.57013	437
877.06781	474
877.56549	461
878.06305	442
878.56061	461
879.05817	408
879.5556	448
880.05304	477
880.55042	410
881.04779	470
881.5451	433
882.04236	441
882.53961	438
883.0368	454
883.53394	434
884.03107	468
884.52808	428
885.02515	441
