Date and Time:                Sat Oct 18 13:18:33.140 2025
Software Version:             4.30.30000.0
Unstabilized Temperature (C): -90.28
Model:                        DU971P_UVB
Data Type:                    Counts
Acquisition Mode:             Single Scan
Trigger Mode:                 Internal
Exposure Time (secs):         30
Readout Mode:                 Full Vertical Binning
Horizontal binning:           2
Extended Dynamic Range:       off
Horizontally flipped:         false
Vertical Shift Speed (usecs): 9.68
Pixel Readout Rate (MHz):     3
Baseline Clamp:               ON
Clock Amplitude:              Normal
Output Amplifier:             Conventional
Serial Number:                20367
Pre-Amplifier Gain:           4x
Spurious Noise Filter Mode:   No Filter
Photon counted:               false
Data Averaging Filter Mode:   No Filter
SR193i:
Serial Number:                SR-2646
Wavelength (nm):              690
Grating Groove Density (l/mm):300
Grating Blaze:                500nm
Input Side Slit Width (um):   1000



478.32681	291
478.84332	318
479.35983	314
479.87631	332
480.39282	337
480.9093	319
481.42575	321
481.94223	325
482.45868	328
482.97513	342
483.49158	337
484.00803	347
484.52444	343
485.04086	323
485.55728	327
486.07367	331
486.59006	321
487.10645	332
487.62283	329
488.13919	318
488.65555	288
489.17191	355
489.68826	334
490.20459	340
490.72092	319
491.23724	345
491.75354	349
492.26984	337
492.78613	341
493.30243	327
493.8187	348
494.33496	331
494.85123	328
495.36746	347
495.8837	344
496.39993	331
496.91617	359
497.43237	325
497.94858	365
498.46478	344
498.98096	362
499.49713	335
500.01331	343
500.52945	321
501.04562	330
501.56174	339
502.07788	333
502.59399	323
503.11011	367
503.62622	370
504.1423	352
504.65839	345
505.17447	345
505.69052	344
506.20657	352
506.72263	352
507.23865	314
507.75467	353
508.27069	343
508.78668	367
509.30267	328
509.81866	333
510.33463	330
510.85059	351
511.36655	348
511.88248	353
512.39844	338
512.91437	343
513.43024	353
513.94617	326
514.46204	333
514.97791	356
515.49377	348
516.00964	315
516.52551	362
517.04132	346
517.55719	339
518.073	357
518.58881	347
519.10461	337
519.62036	355
520.13617	346
520.65192	353
521.16766	322
521.68341	338
522.1991	355
522.71484	363
523.23053	338
523.74622	331
524.2619	367
524.77759	352
525.29327	342
525.8089	338
526.32452	339
526.84015	332
527.35577	373
527.8714	353
528.38696	347
528.90259	337
529.41815	336
529.93372	328
530.44922	347
530.96478	341
531.48029	338
531.99579	370
532.51129	345
533.02679	351
533.5423	336
534.05774	360
534.57318	310
535.08862	359
535.60406	334
536.11945	321
536.63489	344
537.15027	350
537.66565	325
538.18097	347
538.69635	370
539.21167	345
539.72699	360
540.24231	352
540.75763	328
541.27289	321
541.78821	350
542.30347	349
542.81873	357
543.33392	323
543.84918	344
544.36438	343
544.87958	343
545.39478	345
545.90991	352
546.42511	359
546.94025	341
547.45538	321
547.97052	323
548.4856	339
549.00073	351
549.51581	347
550.03088	329
550.5459	337
551.06097	323
551.57599	331
552.091	342
552.60602	346
553.12097	336
553.63593	326
554.15094	324
554.66583	348
555.18079	332
555.69568	327
556.21063	328
556.72552	332
557.24036	342
557.75525	331
558.27008	337
558.78491	332
559.29974	315
559.81458	319
560.32935	326
560.84412	341
561.35889	330
561.87366	330
562.38837	376
562.90308	341
563.41779	342
563.9325	339
564.44714	337
564.96179	334
565.47644	331
565.99109	327
566.50574	327
567.02032	338
567.53491	347
568.0495	349
568.56403	342
569.07861	346
569.59314	325
570.1076	338
570.62213	325
571.1366	321
571.65106	330
572.16553	347
572.67999	327
573.1944	333
573.7088	324
574.22321	327
574.73755	341
575.25195	308
575.7663	338
576.28058	320
576.79492	357
577.3092	337
577.82349	345
578.33777	325
578.85205	310
579.36627	341
579.88049	300
580.39471	313
580.90887	329
581.42303	338
581.93719	345
582.45135	329
582.96545	311
583.47955	351
583.99365	332
584.50775	305
585.02179	327
585.53583	311
586.04987	309
586.5639	324
587.07788	326
587.59186	317
588.10583	349
588.61975	314
589.13373	332
589.64758	317
590.1615	342
590.67542	306
591.18927	326
591.70306	304
592.21692	347
592.73071	342
593.24451	334
593.7583	331
594.27209	332
594.78583	300
595.29956	329
595.81323	316
596.32697	313
596.84064	317
597.35425	317
597.86792	306
598.38153	328
598.89514	319
599.40875	326
599.9223	312
600.43585	308
600.9494	330
601.46289	330
601.97638	327
602.48987	313
603.00336	339
603.51678	325
604.03021	319
604.54364	351
605.05701	309
605.57043	313
606.08374	308
606.59711	329
607.11041	330
607.62372	346
608.13702	317
608.65027	323
609.16351	324
609.67676	329
610.19	316
610.70319	301
611.21637	322
611.72949	338
612.24268	319
612.75574	313
613.26886	315
613.78192	324
614.29504	315
614.80804	324
615.32111	324
615.83411	318
616.34711	321
616.86005	314
617.37299	336
617.88593	308
618.39886	321
618.91174	340
619.42462	344
619.9375	324
620.45032	300
620.96313	316
621.47595	316
621.98871	311
622.50146	316
623.01422	323
623.52692	312
624.03967	314
624.55231	313
625.065	308
625.57764	306
626.09027	305
626.60284	311
627.11542	310
627.62799	339
628.14056	328
628.65308	337
629.16559	330
629.6781	308
630.19055	324
630.703	338
631.21539	311
631.72784	321
632.24017	322
632.75256	330
633.26489	344
633.77722	334
634.28955	308
634.80182	335
635.31409	325
635.82635	288
636.33856	299
636.85077	346
637.36292	322
637.87512	338
638.38721	322
638.89935	325
639.41144	301
639.92352	317
640.43561	318
640.94763	322
641.45966	315
641.97162	324
642.48358	311
642.99554	329
643.50751	372
644.01941	313
644.53131	318
645.04315	312
645.55499	344
646.06683	322
646.57861	330
647.09045	331
647.60217	334
648.11395	318
648.62567	329
649.13733	314
649.64905	317
650.16064	341
650.6723	339
651.1839	327
651.6955	313
652.20709	326
652.71863	302
653.23016	344
653.74164	329
654.25311	311
654.76459	314
655.276	328
655.78741	325
656.29883	314
656.81018	319
657.32153	308
657.83289	329
658.34418	339
658.85547	328
659.3667	323
659.87793	324
660.38916	299
660.90033	311
661.4115	326
661.92267	321
662.43378	342
662.94489	315
663.45593	336
663.96698	309
664.47803	321
664.98907	319
665.50006	316
666.01099	322
666.52191	319
667.03284	330
667.54376	315
668.05463	325
668.56549	332
669.07629	329
669.5871	329
670.0979	322
670.60864	321
671.11938	327
671.63007	329
672.14075	312
672.65143	341
673.16205	327
673.67267	327
674.18329	324
674.69385	308
675.20435	316
675.7149	320
676.2254	302
676.73584	309
677.24628	325
677.75671	316
678.26715	316
678.77753	314
679.28784	324
679.79822	332
680.30847	319
680.81879	294
681.32904	294
681.83923	325
682.34949	332
682.85968	311
683.36981	326
683.87994	332
684.39008	345
684.90015	306
685.41022	326
685.92023	340
686.43024	306
686.94025	303
687.4502	315
687.96014	330
688.47003	320
688.97992	332
689.48981	309
689.99963	297
690.50946	351
691.01923	328
691.52899	314
692.03876	334
692.54846	315
693.05817	314
693.56781	304
694.07745	308
694.58704	320
695.09662	309
695.6062	302
696.11572	292
696.62524	312
697.1347	315
697.64417	323
698.15363	320
698.66302	318
699.17242	332
699.68176	331
700.1911	318
700.70044	330
701.20972	301
701.71893	332
702.22815	323
702.73737	324
703.24652	315
703.75568	313
704.26483	302
704.77393	327
705.28302	313
705.79205	321
706.30103	318
706.81006	321
707.31903	319
707.82794	313
708.33685	324
708.84576	311
709.35461	323
709.86346	318
710.37225	310
710.88104	314
711.38977	319
711.8985	301
712.40723	308
712.91589	330
713.42456	317
713.93317	319
714.44177	326
714.95032	309
715.45886	316
715.96735	300
716.47583	329
716.98431	305
717.49274	327
718.00116	298
718.50952	335
719.01788	311
719.52618	285
720.03448	317
720.54272	306
721.05096	306
721.5592	348
722.06738	306
722.57556	340
723.08368	311
723.59174	319
724.09985	320
724.60791	317
725.11591	313
725.6239	308
726.13184	291
726.63977	328
727.14771	325
727.65558	317
728.16339	326
728.67126	336
729.17902	327
729.68683	300
730.19452	313
730.70227	313
731.2099	303
731.71759	312
732.22522	313
732.73279	311
733.24036	315
733.74792	327
734.25543	312
734.76288	295
735.27032	308
735.77777	314
736.28516	298
736.79254	321
737.29987	318
737.80719	303
738.31445	310
738.82172	312
739.32892	293
739.83612	281
740.34326	312
740.8504	317
741.35748	313
741.86456	310
742.37164	311
742.87866	319
743.38562	324
743.89258	329
744.39954	312
744.90643	311
745.41327	318
745.9201	285
746.42694	310
746.93372	316
747.44049	310
747.9472	292
748.45386	320
748.96057	322
749.46716	309
749.97375	289
750.48035	331
750.98688	325
751.49341	327
751.99988	314
752.50635	316
753.01276	306
753.51917	318
754.02551	313
754.53186	318
755.03815	324
755.54443	322
756.05066	312
756.55688	319
757.06305	310
757.56921	310
758.07532	321
758.58142	325
759.08746	325
759.59351	309
760.09949	300
760.60547	306
761.11139	303
761.61725	326
762.12317	343
762.62897	311
763.13483	318
763.64056	303
764.1463	320
764.65204	326
765.15771	331
765.66339	304
766.16901	308
766.67462	313
767.18018	314
767.68567	342
768.19116	310
768.69666	290
769.20209	335
769.70746	325
770.21283	326
770.7182	331
771.22351	322
771.72876	303
772.23401	324
772.73926	321
773.24445	322
773.74957	301
774.2547	310
774.75977	325
775.26483	316
775.76984	314
776.27484	331
776.77979	336
777.28473	333
777.78961	300
778.29449	313
778.79932	319
779.30408	321
779.80884	316
780.3136	294
780.8183	336
781.32294	301
781.82758	327
782.33215	326
782.83673	317
783.34131	294
783.84576	305
784.35028	321
784.85468	316
785.35907	332
785.86346	313
786.3678	283
786.87213	301
787.3764	331
787.88062	316
788.38483	304
788.88898	308
789.39313	316
789.89722	289
790.40131	295
790.90533	327
791.40936	333
791.91333	318
792.4173	295
792.9212	328
793.42505	318
793.92889	299
794.43268	306
794.93646	307
795.44019	302
795.94391	293
796.44757	303
796.95123	309
797.45483	316
797.95837	302
798.46191	316
798.96539	316
799.46887	319
799.97235	318
800.47571	308
800.97906	327
801.48242	324
801.98572	330
802.48895	335
802.99219	332
803.49536	324
803.99854	314
804.50165	304
805.00476	320
805.50781	323
806.01086	310
806.51379	301
807.01678	299
807.51971	328
808.02258	322
808.52539	316
809.02826	298
809.53101	289
810.03375	310
810.53644	307
811.03912	306
811.54175	326
812.04437	295
812.54694	309
813.04944	289
813.55194	319
814.05444	307
814.55682	314
815.05927	316
815.56158	308
816.0639	343
816.56622	312
817.06842	304
817.57068	308
818.07281	314
818.57495	303
819.07709	309
819.57916	340
820.08118	322
820.58319	332
821.08514	319
821.5871	314
822.08899	307
822.59082	299
823.09265	324
823.59442	298
824.09619	297
824.5979	301
825.09955	311
825.6012	314
826.10278	335
826.60437	314
827.1059	313
827.60736	307
828.10883	312
828.61023	310
829.11163	320
829.61298	299
830.11432	339
830.61554	301
831.11682	328
831.61798	299
832.11914	325
832.6203	341
833.1214	300
833.62244	320
834.12347	310
834.62445	317
835.12537	334
835.62628	294
836.12714	321
836.62799	294
837.12878	319
837.62952	323
838.13025	305
838.63092	318
839.13153	310
839.63214	310
840.13275	325
840.63324	330
841.13373	303
841.63422	314
842.13464	325
842.63501	309
843.13538	318
843.63568	305
844.13593	318
844.63617	317
845.13635	334
845.63647	332
846.1366	294
846.63672	296
847.13672	343
847.63672	325
848.13672	325
848.6366	317
849.13647	302
849.63635	327
850.13617	312
850.63593	317
851.13568	305
851.63538	304
852.13501	317
852.63464	331
853.13422	300
853.63373	315
854.13324	312
854.63275	333
855.13214	309
855.63153	312
856.13086	350
856.63019	334
857.12946	316
857.62866	314
858.12787	302
858.62701	322
859.12616	306
859.62524	307
860.12427	327
860.62323	316
861.12219	336
861.62109	305
862.12	316
862.61884	326
863.11761	319
863.61639	310
864.11511	299
864.61377	315
865.11243	317
865.61102	306
866.10962	312
866.60809	290
867.10663	305
867.60504	317
868.10345	321
868.60181	305
869.10016	308
869.59839	332
870.09668	336
870.59485	366
871.09302	394
871.59113	413
872.08923	389
872.58728	436
873.08527	438
873.58325	465
874.08118	449
874.57904	410
875.0769	450
875.57465	463
876.07245	445
876.57013	461
877.06781	472
877.56549	475
878.06305	445
878.56061	457
879.05817	484
879.5556	504
880.05304	472
880.55042	476
881.04779	468
881.5451	452
882.04236	474
882.53961	505
883.0368	476
883.53394	470
884.03107	462
884.52808	492
885.02515	495
