Date and Time:                Fri Oct 17 08:46:56.754 2025
Software Version:             4.30.30000.0
Temperature (C):              -90
Model:                        DU971P_UVB
Data Type:                    Counts
Acquisition Mode:             Single Scan
Trigger Mode:                 Internal
Exposure Time (secs):         30
Readout Mode:                 Full Vertical Binning
Horizontal binning:           2
Extended Dynamic Range:       off
Horizontally flipped:         false
Vertical Shift Speed (usecs): 9.68
Pixel Readout Rate (MHz):     3
Baseline Clamp:               ON
Clock Amplitude:              Normal
Output Amplifier:             Conventional
Serial Number:                20367
Pre-Amplifier Gain:           4x
Spurious Noise Filter Mode:   No Filter
Photon counted:               false
Data Averaging Filter Mode:   No Filter
SR193i:
Serial Number:                SR-2646
Wavelength (nm):              690
Grating Groove Density (l/mm):300
Grating Blaze:                500nm
Input Side Slit Width (um):   1000



478.32681	338
478.84332	380
479.35983	397
479.87631	372
480.39282	357
480.9093	366
481.42575	351
481.94223	371
482.45868	371
482.97513	367
483.49158	382
484.00803	380
484.52444	380
485.04086	371
485.55728	403
486.07367	412
486.59006	379
487.10645	435
487.62283	394
488.13919	395
488.65555	443
489.17191	443
489.68826	445
490.20459	432
490.72092	454
491.23724	491
491.75354	461
492.26984	437
492.78613	463
493.30243	486
493.8187	512
494.33496	478
494.85123	478
495.36746	491
495.8837	512
496.39993	502
496.91617	497
497.43237	515
497.94858	544
498.46478	551
498.98096	541
499.49713	564
500.01331	566
500.52945	570
501.04562	584
501.56174	551
502.07788	556
502.59399	557
503.11011	574
503.62622	563
504.1423	560
504.65839	555
505.17447	556
505.69052	560
506.20657	553
506.72263	599
507.23865	557
507.75467	559
508.27069	530
508.78668	582
509.30267	606
509.81866	519
510.33463	564
510.85059	564
511.36655	537
511.88248	531
512.39844	593
512.91437	566
513.43024	566
513.94617	550
514.46204	532
514.97791	558
515.49377	537
516.00964	543
516.52551	577
517.04132	564
517.55719	526
518.073	545
518.58881	565
519.10461	553
519.62036	546
520.13617	545
520.65192	523
521.16766	562
521.68341	564
522.1991	544
522.71484	564
523.23053	570
523.74622	567
524.2619	511
524.77759	520
525.29327	577
525.8089	510
526.32452	515
526.84015	549
527.35577	571
527.8714	495
528.38696	548
528.90259	589
529.41815	528
529.93372	534
530.44922	565
530.96478	510
531.48029	532
531.99579	558
532.51129	522
533.02679	503
533.5423	534
534.05774	516
534.57318	556
535.08862	526
535.60406	544
536.11945	539
536.63489	519
537.15027	517
537.66565	534
538.18097	523
538.69635	528
539.21167	537
539.72699	524
540.24231	542
540.75763	581
541.27289	520
541.78821	550
542.30347	523
542.81873	544
543.33392	588
543.84918	565
544.36438	556
544.87958	537
545.39478	537
545.90991	515
546.42511	537
546.94025	563
547.45538	549
547.97052	533
548.4856	544
549.00073	582
549.51581	592
550.03088	544
550.5459	533
551.06097	601
551.57599	573
552.091	586
552.60602	558
553.12097	573
553.63593	565
554.15094	578
554.66583	585
555.18079	568
555.69568	594
556.21063	568
556.72552	597
557.24036	640
557.75525	615
558.27008	625
558.78491	596
559.29974	615
559.81458	618
560.32935	622
560.84412	646
561.35889	631
561.87366	644
562.38837	649
562.90308	666
563.41779	670
563.9325	739
564.44714	684
564.96179	699
565.47644	698
565.99109	699
566.50574	699
567.02032	696
567.53491	694
568.0495	734
568.56403	762
569.07861	726
569.59314	711
570.1076	749
570.62213	714
571.1366	734
571.65106	737
572.16553	750
572.67999	800
573.1944	751
573.7088	762
574.22321	773
574.73755	771
575.25195	824
575.7663	814
576.28058	878
576.79492	827
577.3092	794
577.82349	898
578.33777	844
578.85205	852
579.36627	834
579.88049	883
580.39471	877
580.90887	871
581.42303	889
581.93719	920
582.45135	919
582.96545	960
583.47955	896
583.99365	904
584.50775	934
585.02179	947
585.53583	993
586.04987	963
586.5639	962
587.07788	996
587.59186	983
588.10583	1020
588.61975	969
589.13373	952
589.64758	1040
590.1615	945
590.67542	961
591.18927	1096
591.70306	1047
592.21692	1064
592.73071	1009
593.24451	1071
593.7583	1033
594.27209	1050
594.78583	1120
595.29956	1069
595.81323	997
596.32697	1062
596.84064	1043
597.35425	1098
597.86792	1110
598.38153	1053
598.89514	1074
599.40875	1098
599.9223	1120
600.43585	1111
600.9494	1042
601.46289	1050
601.97638	1136
602.48987	1091
603.00336	1085
603.51678	1110
604.03021	1080
604.54364	1090
605.05701	1072
605.57043	1125
606.08374	1066
606.59711	1128
607.11041	1091
607.62372	1088
608.13702	1078
608.65027	1118
609.16351	1133
609.67676	1127
610.19	1103
610.70319	1145
611.21637	1036
611.72949	1096
612.24268	1108
612.75574	1124
613.26886	1136
613.78192	1127
614.29504	1154
614.80804	1093
615.32111	1085
615.83411	1091
616.34711	1082
616.86005	1134
617.37299	1094
617.88593	1117
618.39886	1080
618.91174	1082
619.42462	1080
619.9375	1141
620.45032	1052
620.96313	1041
621.47595	1066
621.98871	1074
622.50146	1098
623.01422	1082
623.52692	1071
624.03967	1060
624.55231	1043
625.065	1012
625.57764	1037
626.09027	1101
626.60284	1068
627.11542	1022
627.62799	1050
628.14056	1053
628.65308	1000
629.16559	1001
629.6781	1073
630.19055	1069
630.703	994
631.21539	946
631.72784	1015
632.24017	1010
632.75256	1040
633.26489	1023
633.77722	1037
634.28955	984
634.80182	1033
635.31409	1014
635.82635	993
636.33856	964
636.85077	1028
637.36292	894
637.87512	959
638.38721	955
638.89935	1008
639.41144	984
639.92352	1006
640.43561	928
640.94763	974
641.45966	953
641.97162	900
642.48358	932
642.99554	1006
643.50751	912
644.01941	897
644.53131	914
645.04315	1001
645.55499	883
646.06683	932
646.57861	937
647.09045	910
647.60217	934
648.11395	925
648.62567	857
649.13733	904
649.64905	878
650.16064	947
650.6723	953
651.1839	899
651.6955	931
652.20709	899
652.71863	912
653.23016	866
653.74164	837
654.25311	919
654.76459	839
655.276	844
655.78741	856
656.29883	793
656.81018	849
657.32153	863
657.83289	873
658.34418	886
658.85547	887
659.3667	842
659.87793	852
660.38916	873
660.90033	832
661.4115	829
661.92267	818
662.43378	798
662.94489	799
663.45593	754
663.96698	811
664.47803	787
664.98907	799
665.50006	813
666.01099	766
666.52191	825
667.03284	783
667.54376	848
668.05463	806
668.56549	770
669.07629	784
669.5871	827
670.0979	785
670.60864	770
671.11938	780
671.63007	761
672.14075	784
672.65143	764
673.16205	779
673.67267	713
674.18329	717
674.69385	748
675.20435	745
675.7149	739
676.2254	757
676.73584	765
677.24628	776
677.75671	746
678.26715	735
678.77753	778
679.28784	728
679.79822	721
680.30847	772
680.81879	743
681.32904	678
681.83923	672
682.34949	741
682.85968	724
683.36981	716
683.87994	769
684.39008	747
684.90015	681
685.41022	686
685.92023	715
686.43024	744
686.94025	680
687.4502	697
687.96014	724
688.47003	666
688.97992	649
689.48981	679
689.99963	708
690.50946	674
691.01923	666
691.52899	669
692.03876	648
692.54846	659
693.05817	658
693.56781	693
694.07745	655
694.58704	662
695.09662	699
695.6062	642
696.11572	621
696.62524	647
697.1347	619
697.64417	676
698.15363	652
698.66302	654
699.17242	640
699.68176	626
700.1911	691
700.70044	702
701.20972	605
701.71893	596
702.22815	627
702.73737	627
703.24652	607
703.75568	629
704.26483	651
704.77393	588
705.28302	637
705.79205	629
706.30103	553
706.81006	605
707.31903	618
707.82794	584
708.33685	609
708.84576	590
709.35461	576
709.86346	557
710.37225	597
710.88104	613
711.38977	608
711.8985	567
712.40723	610
712.91589	567
713.42456	567
713.93317	578
714.44177	535
714.95032	549
715.45886	574
715.96735	557
716.47583	568
716.98431	538
717.49274	574
718.00116	550
718.50952	554
719.01788	562
719.52618	577
720.03448	549
720.54272	558
721.05096	553
721.5592	537
722.06738	565
722.57556	570
723.08368	517
723.59174	551
724.09985	552
724.60791	535
725.11591	539
725.6239	525
726.13184	528
726.63977	507
727.14771	535
727.65558	517
728.16339	519
728.67126	523
729.17902	524
729.68683	540
730.19452	536
730.70227	544
731.2099	501
731.71759	529
732.22522	506
732.73279	475
733.24036	504
733.74792	510
734.25543	506
734.76288	496
735.27032	515
735.77777	549
736.28516	529
736.79254	570
737.29987	532
737.80719	510
738.31445	529
738.82172	506
739.32892	505
739.83612	535
740.34326	505
740.8504	493
741.35748	480
741.86456	516
742.37164	456
742.87866	487
743.38562	542
743.89258	519
744.39954	483
744.90643	494
745.41327	490
745.9201	465
746.42694	476
746.93372	478
747.44049	483
747.9472	494
748.45386	483
748.96057	473
749.46716	461
749.97375	500
750.48035	456
750.98688	457
751.49341	477
751.99988	475
752.50635	473
753.01276	479
753.51917	453
754.02551	468
754.53186	454
755.03815	461
755.54443	461
756.05066	471
756.55688	470
757.06305	447
757.56921	478
758.07532	443
758.58142	453
759.08746	459
759.59351	445
760.09949	432
760.60547	426
761.11139	436
761.61725	442
762.12317	433
762.62897	419
763.13483	454
763.64056	443
764.1463	455
764.65204	439
765.15771	427
765.66339	420
766.16901	440
766.67462	456
767.18018	408
767.68567	430
768.19116	445
768.69666	463
769.20209	421
769.70746	437
770.21283	423
770.7182	426
771.22351	411
771.72876	447
772.23401	414
772.73926	429
773.24445	412
773.74957	423
774.2547	432
774.75977	403
775.26483	409
775.76984	414
776.27484	415
776.77979	425
777.28473	400
777.78961	430
778.29449	405
778.79932	429
779.30408	402
779.80884	407
780.3136	410
780.8183	395
781.32294	409
781.82758	434
782.33215	415
782.83673	410
783.34131	409
783.84576	421
784.35028	396
784.85468	395
785.35907	428
785.86346	402
786.3678	380
786.87213	384
787.3764	392
787.88062	388
788.38483	385
788.88898	382
789.39313	382
789.89722	371
790.40131	411
790.90533	416
791.40936	392
791.91333	387
792.4173	394
792.9212	393
793.42505	400
793.92889	379
794.43268	358
794.93646	375
795.44019	389
795.94391	357
796.44757	372
796.95123	373
797.45483	393
797.95837	389
798.46191	372
798.96539	395
799.46887	405
799.97235	383
800.47571	364
800.97906	381
801.48242	372
801.98572	381
802.48895	370
802.99219	368
803.49536	373
803.99854	375
804.50165	379
805.00476	380
805.50781	387
806.01086	392
806.51379	397
807.01678	359
807.51971	370
808.02258	399
808.52539	364
809.02826	365
809.53101	380
810.03375	362
810.53644	388
811.03912	379
811.54175	366
812.04437	374
812.54694	373
813.04944	364
813.55194	363
814.05444	340
814.55682	356
815.05927	362
815.56158	360
816.0639	372
816.56622	353
817.06842	350
817.57068	346
818.07281	362
818.57495	353
819.07709	361
819.57916	365
820.08118	375
820.58319	365
821.08514	349
821.5871	357
822.08899	357
822.59082	351
823.09265	390
823.59442	342
824.09619	377
824.5979	370
825.09955	349
825.6012	349
826.10278	356
826.60437	381
827.1059	360
827.60736	356
828.10883	342
828.61023	350
829.11163	358
829.61298	345
830.11432	345
830.61554	339
831.11682	340
831.61798	361
832.11914	351
832.6203	366
833.1214	357
833.62244	356
834.12347	385
834.62445	349
835.12537	352
835.62628	359
836.12714	335
836.62799	364
837.12878	363
837.62952	368
838.13025	368
838.63092	370
839.13153	345
839.63214	354
840.13275	396
840.63324	349
841.13373	383
841.63422	369
842.13464	345
842.63501	349
843.13538	369
843.63568	344
844.13593	382
844.63617	337
845.13635	361
845.63647	354
846.1366	340
846.63672	362
847.13672	337
847.63672	334
848.13672	362
848.6366	354
849.13647	340
849.63635	359
850.13617	344
850.63593	341
851.13568	363
851.63538	330
852.13501	328
852.63464	364
853.13422	353
853.63373	357
854.13324	345
854.63275	356
855.13214	370
855.63153	351
856.13086	356
856.63019	367
857.12946	349
857.62866	343
858.12787	364
858.62701	335
859.12616	354
859.62524	355
860.12427	342
860.62323	355
861.12219	336
861.62109	330
862.12	372
862.61884	340
863.11761	369
863.61639	359
864.11511	343
864.61377	334
865.11243	329
865.61102	338
866.10962	374
866.60809	368
867.10663	352
867.60504	336
868.10345	362
868.60181	370
869.10016	367
869.59839	359
870.09668	455
870.59485	473
871.09302	594
871.59113	633
872.08923	725
872.58728	821
873.08527	851
873.58325	897
874.08118	918
874.57904	889
875.0769	850
875.57465	833
876.07245	881
876.57013	906
877.06781	896
877.56549	871
878.06305	963
878.56061	886
879.05817	930
879.5556	909
880.05304	898
880.55042	945
881.04779	929
881.5451	933
882.04236	901
882.53961	990
883.0368	957
883.53394	959
884.03107	893
884.52808	995
885.02515	868
