Date and Time:                Fri Oct 17 08:44:53.961 2025
Software Version:             4.30.30000.0
Temperature (C):              -90
Model:                        DU971P_UVB
Data Type:                    Counts
Acquisition Mode:             Single Scan
Trigger Mode:                 Internal
Exposure Time (secs):         30
Readout Mode:                 Full Vertical Binning
Horizontal binning:           2
Extended Dynamic Range:       off
Horizontally flipped:         false
Vertical Shift Speed (usecs): 9.68
Pixel Readout Rate (MHz):     3
Baseline Clamp:               ON
Clock Amplitude:              Normal
Output Amplifier:             Conventional
Serial Number:                20367
Pre-Amplifier Gain:           4x
Spurious Noise Filter Mode:   No Filter
Photon counted:               false
Data Averaging Filter Mode:   No Filter
SR193i:
Serial Number:                SR-2646
Wavelength (nm):              690
Grating Groove Density (l/mm):300
Grating Blaze:                500nm
Input Side Slit Width (um):   1000



478.32681	303
478.84332	359
479.35983	366
479.87631	368
480.39282	371
480.9093	371
481.42575	381
481.94223	362
482.45868	358
482.97513	364
483.49158	371
484.00803	393
484.52444	379
485.04086	392
485.55728	402
486.07367	431
486.59006	420
487.10645	405
487.62283	433
488.13919	415
488.65555	436
489.17191	439
489.68826	432
490.20459	463
490.72092	432
491.23724	447
491.75354	482
492.26984	479
492.78613	451
493.30243	450
493.8187	474
494.33496	525
494.85123	514
495.36746	520
495.8837	493
496.39993	540
496.91617	515
497.43237	544
497.94858	538
498.46478	553
498.98096	540
499.49713	562
500.01331	562
500.52945	562
501.04562	543
501.56174	566
502.07788	584
502.59399	549
503.11011	556
503.62622	576
504.1423	557
504.65839	549
505.17447	564
505.69052	547
506.20657	582
506.72263	579
507.23865	569
507.75467	551
508.27069	562
508.78668	559
509.30267	567
509.81866	583
510.33463	584
510.85059	544
511.36655	562
511.88248	560
512.39844	565
512.91437	542
513.43024	547
513.94617	557
514.46204	538
514.97791	537
515.49377	519
516.00964	574
516.52551	558
517.04132	553
517.55719	552
518.073	554
518.58881	538
519.10461	527
519.62036	528
520.13617	562
520.65192	552
521.16766	577
521.68341	568
522.1991	532
522.71484	569
523.23053	543
523.74622	559
524.2619	527
524.77759	557
525.29327	541
525.8089	564
526.32452	535
526.84015	540
527.35577	540
527.8714	522
528.38696	531
528.90259	530
529.41815	529
529.93372	557
530.44922	513
530.96478	555
531.48029	540
531.99579	546
532.51129	513
533.02679	559
533.5423	543
534.05774	529
534.57318	522
535.08862	540
535.60406	524
536.11945	539
536.63489	506
537.15027	528
537.66565	547
538.18097	557
538.69635	516
539.21167	533
539.72699	553
540.24231	564
540.75763	555
541.27289	545
541.78821	548
542.30347	547
542.81873	539
543.33392	521
543.84918	526
544.36438	551
544.87958	544
545.39478	561
545.90991	510
546.42511	549
546.94025	534
547.45538	530
547.97052	560
548.4856	563
549.00073	534
549.51581	601
550.03088	558
550.5459	548
551.06097	561
551.57599	540
552.091	572
552.60602	568
553.12097	555
553.63593	549
554.15094	557
554.66583	563
555.18079	596
555.69568	599
556.21063	581
556.72552	623
557.24036	607
557.75525	634
558.27008	597
558.78491	615
559.29974	642
559.81458	623
560.32935	607
560.84412	615
561.35889	620
561.87366	670
562.38837	610
562.90308	662
563.41779	680
563.9325	625
564.44714	664
564.96179	676
565.47644	661
565.99109	685
566.50574	676
567.02032	745
567.53491	696
568.0495	756
568.56403	717
569.07861	705
569.59314	716
570.1076	737
570.62213	773
571.1366	782
571.65106	767
572.16553	794
572.67999	712
573.1944	767
573.7088	811
574.22321	804
574.73755	775
575.25195	752
575.7663	808
576.28058	826
576.79492	844
577.3092	853
577.82349	831
578.33777	837
578.85205	876
579.36627	866
579.88049	796
580.39471	932
580.90887	913
581.42303	850
581.93719	910
582.45135	885
582.96545	916
583.47955	947
583.99365	894
584.50775	923
585.02179	925
585.53583	971
586.04987	935
586.5639	928
587.07788	946
587.59186	943
588.10583	1051
588.61975	940
589.13373	1014
589.64758	991
590.1615	1004
590.67542	1000
591.18927	1028
591.70306	997
592.21692	973
592.73071	1049
593.24451	1052
593.7583	1015
594.27209	1114
594.78583	1007
595.29956	1060
595.81323	1061
596.32697	1076
596.84064	1065
597.35425	1066
597.86792	1069
598.38153	1100
598.89514	1083
599.40875	1105
599.9223	1087
600.43585	1057
600.9494	1052
601.46289	1108
601.97638	1037
602.48987	1078
603.00336	1091
603.51678	1112
604.03021	1051
604.54364	1117
605.05701	1138
605.57043	1046
606.08374	1122
606.59711	1099
607.11041	1112
607.62372	1137
608.13702	1137
608.65027	1079
609.16351	1101
609.67676	1060
610.19	1069
610.70319	1160
611.21637	1077
611.72949	1060
612.24268	1038
612.75574	1074
613.26886	1100
613.78192	1045
614.29504	1023
614.80804	1097
615.32111	1142
615.83411	1138
616.34711	1023
616.86005	1091
617.37299	1032
617.88593	1106
618.39886	1023
618.91174	1066
619.42462	1104
619.9375	1060
620.45032	1095
620.96313	1072
621.47595	1082
621.98871	1070
622.50146	1080
623.01422	1110
623.52692	1058
624.03967	980
624.55231	1018
625.065	1082
625.57764	1013
626.09027	1005
626.60284	1023
627.11542	1083
627.62799	981
628.14056	1073
628.65308	996
629.16559	991
629.6781	984
630.19055	1036
630.703	1014
631.21539	989
631.72784	1028
632.24017	976
632.75256	995
633.26489	1093
633.77722	915
634.28955	965
634.80182	988
635.31409	990
635.82635	988
636.33856	941
636.85077	948
637.36292	1011
637.87512	936
638.38721	940
638.89935	969
639.41144	943
639.92352	959
640.43561	941
640.94763	956
641.45966	1004
641.97162	984
642.48358	919
642.99554	945
643.50751	941
644.01941	919
644.53131	927
645.04315	913
645.55499	895
646.06683	957
646.57861	894
647.09045	938
647.60217	868
648.11395	891
648.62567	903
649.13733	861
649.64905	882
650.16064	940
650.6723	897
651.1839	863
651.6955	858
652.20709	929
652.71863	794
653.23016	886
653.74164	832
654.25311	863
654.76459	870
655.276	841
655.78741	825
656.29883	830
656.81018	858
657.32153	822
657.83289	813
658.34418	811
658.85547	863
659.3667	803
659.87793	862
660.38916	799
660.90033	829
661.4115	833
661.92267	785
662.43378	750
662.94489	773
663.45593	801
663.96698	838
664.47803	834
664.98907	769
665.50006	810
666.01099	834
666.52191	810
667.03284	747
667.54376	787
668.05463	806
668.56549	816
669.07629	750
669.5871	770
670.0979	767
670.60864	765
671.11938	773
671.63007	778
672.14075	716
672.65143	781
673.16205	753
673.67267	759
674.18329	749
674.69385	740
675.20435	750
675.7149	722
676.2254	748
676.73584	719
677.24628	766
677.75671	764
678.26715	713
678.77753	700
679.28784	731
679.79822	746
680.30847	695
680.81879	734
681.32904	735
681.83923	722
682.34949	696
682.85968	765
683.36981	739
683.87994	714
684.39008	717
684.90015	683
685.41022	755
685.92023	678
686.43024	665
686.94025	659
687.4502	681
687.96014	645
688.47003	685
688.97992	687
689.48981	647
689.99963	672
690.50946	711
691.01923	652
691.52899	674
692.03876	647
692.54846	627
693.05817	687
693.56781	701
694.07745	632
694.58704	661
695.09662	640
695.6062	612
696.11572	647
696.62524	662
697.1347	621
697.64417	662
698.15363	650
698.66302	609
699.17242	648
699.68176	615
700.1911	642
700.70044	637
701.20972	633
701.71893	609
702.22815	593
702.73737	610
703.24652	589
703.75568	592
704.26483	563
704.77393	645
705.28302	606
705.79205	619
706.30103	574
706.81006	605
707.31903	606
707.82794	601
708.33685	617
708.84576	560
709.35461	567
709.86346	569
710.37225	599
710.88104	581
711.38977	613
711.8985	561
712.40723	592
712.91589	552
713.42456	621
713.93317	581
714.44177	549
714.95032	580
715.45886	554
715.96735	571
716.47583	577
716.98431	546
717.49274	568
718.00116	546
718.50952	603
719.01788	551
719.52618	565
720.03448	525
720.54272	527
721.05096	561
721.5592	548
722.06738	575
722.57556	566
723.08368	523
723.59174	583
724.09985	524
724.60791	494
725.11591	527
725.6239	539
726.13184	560
726.63977	545
727.14771	560
727.65558	517
728.16339	518
728.67126	531
729.17902	563
729.68683	541
730.19452	558
730.70227	526
731.2099	517
731.71759	524
732.22522	505
732.73279	487
733.24036	502
733.74792	519
734.25543	547
734.76288	526
735.27032	528
735.77777	522
736.28516	511
736.79254	475
737.29987	531
737.80719	502
738.31445	487
738.82172	512
739.32892	478
739.83612	515
740.34326	469
740.8504	526
741.35748	476
741.86456	494
742.37164	486
742.87866	509
743.38562	519
743.89258	485
744.39954	462
744.90643	480
745.41327	474
745.9201	471
746.42694	456
746.93372	466
747.44049	479
747.9472	457
748.45386	496
748.96057	466
749.46716	467
749.97375	488
750.48035	451
750.98688	450
751.49341	474
751.99988	457
752.50635	479
753.01276	433
753.51917	453
754.02551	438
754.53186	459
755.03815	459
755.54443	430
756.05066	473
756.55688	460
757.06305	439
757.56921	437
758.07532	472
758.58142	451
759.08746	421
759.59351	468
760.09949	422
760.60547	428
761.11139	463
761.61725	435
762.12317	431
762.62897	424
763.13483	444
763.64056	438
764.1463	434
764.65204	424
765.15771	417
765.66339	455
766.16901	415
766.67462	415
767.18018	420
767.68567	427
768.19116	435
768.69666	417
769.20209	422
769.70746	396
770.21283	394
770.7182	424
771.22351	387
771.72876	398
772.23401	421
772.73926	417
773.24445	420
773.74957	403
774.2547	411
774.75977	408
775.26483	398
775.76984	413
776.27484	416
776.77979	388
777.28473	414
777.78961	390
778.29449	403
778.79932	412
779.30408	385
779.80884	407
780.3136	388
780.8183	432
781.32294	403
781.82758	392
782.33215	411
782.83673	376
783.34131	402
783.84576	420
784.35028	413
784.85468	367
785.35907	387
785.86346	399
786.3678	407
786.87213	393
787.3764	387
787.88062	379
788.38483	374
788.88898	379
789.39313	384
789.89722	385
790.40131	381
790.90533	394
791.40936	376
791.91333	374
792.4173	392
792.9212	361
793.42505	385
793.92889	360
794.43268	372
794.93646	413
795.44019	381
795.94391	383
796.44757	390
796.95123	387
797.45483	387
797.95837	377
798.46191	389
798.96539	389
799.46887	355
799.97235	395
800.47571	409
800.97906	372
801.48242	342
801.98572	360
802.48895	372
802.99219	360
803.49536	368
803.99854	363
804.50165	357
805.00476	377
805.50781	366
806.01086	362
806.51379	358
807.01678	358
807.51971	374
808.02258	360
808.52539	362
809.02826	361
809.53101	384
810.03375	387
810.53644	366
811.03912	335
811.54175	354
812.04437	341
812.54694	381
813.04944	355
813.55194	375
814.05444	378
814.55682	372
815.05927	359
815.56158	387
816.0639	363
816.56622	363
817.06842	340
817.57068	376
818.07281	361
818.57495	348
819.07709	366
819.57916	366
820.08118	366
820.58319	351
821.08514	371
821.5871	362
822.08899	353
822.59082	353
823.09265	364
823.59442	361
824.09619	359
824.5979	363
825.09955	357
825.6012	346
826.10278	349
826.60437	337
827.1059	352
827.60736	374
828.10883	335
828.61023	374
829.11163	345
829.61298	349
830.11432	368
830.61554	370
831.11682	355
831.61798	362
832.11914	348
832.6203	351
833.1214	312
833.62244	372
834.12347	323
834.62445	361
835.12537	359
835.62628	363
836.12714	364
836.62799	337
837.12878	360
837.62952	354
838.13025	363
838.63092	363
839.13153	318
839.63214	349
840.13275	362
840.63324	359
841.13373	387
841.63422	348
842.13464	354
842.63501	332
843.13538	347
843.63568	346
844.13593	357
844.63617	382
845.13635	352
845.63647	337
846.1366	328
846.63672	345
847.13672	336
847.63672	357
848.13672	353
848.6366	327
849.13647	349
849.63635	362
850.13617	347
850.63593	339
851.13568	358
851.63538	369
852.13501	346
852.63464	372
853.13422	340
853.63373	360
854.13324	348
854.63275	351
855.13214	340
855.63153	363
856.13086	362
856.63019	341
857.12946	347
857.62866	364
858.12787	347
858.62701	355
859.12616	378
859.62524	366
860.12427	353
860.62323	365
861.12219	345
861.62109	344
862.12	329
862.61884	354
863.11761	349
863.61639	392
864.11511	329
864.61377	353
865.11243	343
865.61102	347
866.10962	342
866.60809	356
867.10663	350
867.60504	339
868.10345	357
868.60181	383
869.10016	354
869.59839	388
870.09668	419
870.59485	509
871.09302	584
871.59113	688
872.08923	744
872.58728	833
873.08527	881
873.58325	851
874.08118	862
874.57904	845
875.0769	903
875.57465	858
876.07245	826
876.57013	847
877.06781	903
877.56549	909
878.06305	964
878.56061	922
879.05817	887
879.5556	997
880.05304	913
880.55042	939
881.04779	955
881.5451	916
882.04236	923
882.53961	892
883.0368	966
883.53394	922
884.03107	932
884.52808	921
885.02515	923
