Date and Time:                Sun Nov 2 15:06:56.944 2025
Software Version:             4.30.30000.0
Temperature (C):              -90
Model:                        DU971P_UVB
Data Type:                    Counts
Acquisition Mode:             Single Scan
Trigger Mode:                 Internal
Exposure Time (secs):         30
Readout Mode:                 Full Vertical Binning
Horizontal binning:           2
Extended Dynamic Range:       off
Horizontally flipped:         false
Vertical Shift Speed (usecs): 9.68
Pixel Readout Rate (MHz):     3
Baseline Clamp:               ON
Clock Amplitude:              Normal
Output Amplifier:             Conventional
Serial Number:                20367
Pre-Amplifier Gain:           4x
Spurious Noise Filter Mode:   No Filter
Photon counted:               false
Data Averaging Filter Mode:   No Filter
SR193i:
Serial Number:                SR-2646
Wavelength (nm):              690
Grating Groove Density (l/mm):300
Grating Blaze:                500nm
Input Side Slit Width (um):   1000



478.32681	320
478.84332	372
479.35983	362
479.87631	377
480.39282	364
480.9093	359
481.42575	362
481.94223	353
482.45868	356
482.97513	370
483.49158	368
484.00803	376
484.52444	396
485.04086	396
485.55728	436
486.07367	426
486.59006	488
487.10645	482
487.62283	462
488.13919	486
488.65555	537
489.17191	543
489.68826	589
490.20459	610
490.72092	606
491.23724	612
491.75354	672
492.26984	628
492.78613	681
493.30243	724
493.8187	745
494.33496	734
494.85123	806
495.36746	767
495.8837	810
496.39993	859
496.91617	860
497.43237	850
497.94858	907
498.46478	926
498.98096	900
499.49713	979
500.01331	958
500.52945	1009
501.04562	1015
501.56174	989
502.07788	986
502.59399	992
503.11011	991
503.62622	995
504.1423	1022
504.65839	986
505.17447	973
505.69052	984
506.20657	979
506.72263	1001
507.23865	976
507.75467	975
508.27069	1044
508.78668	1015
509.30267	1038
509.81866	1024
510.33463	988
510.85059	1040
511.36655	990
511.88248	1040
512.39844	1010
512.91437	1072
513.43024	1014
513.94617	1037
514.46204	1028
514.97791	1001
515.49377	972
516.00964	1053
516.52551	1015
517.04132	1097
517.55719	1158
518.073	1037
518.58881	1012
519.10461	1017
519.62036	1036
520.13617	998
520.65192	989
521.16766	1014
521.68341	997
522.1991	1012
522.71484	1000
523.23053	1078
523.74622	959
524.2619	1015
524.77759	951
525.29327	979
525.8089	1073
526.32452	984
526.84015	975
527.35577	952
527.8714	1003
528.38696	1003
528.90259	1028
529.41815	946
529.93372	930
530.44922	1004
530.96478	941
531.48029	947
531.99579	959
532.51129	918
533.02679	933
533.5423	931
534.05774	946
534.57318	897
535.08862	927
535.60406	879
536.11945	879
536.63489	954
537.15027	888
537.66565	938
538.18097	925
538.69635	1002
539.21167	956
539.72699	966
540.24231	847
540.75763	870
541.27289	883
541.78821	848
542.30347	922
542.81873	909
543.33392	872
543.84918	917
544.36438	814
544.87958	868
545.39478	837
545.90991	878
546.42511	863
546.94025	885
547.45538	866
547.97052	968
548.4856	4208
549.00073	857
549.51581	1183
550.03088	5955
550.5459	820
551.06097	829
551.57599	839
552.091	910
552.60602	874
553.12097	869
553.63593	916
554.15094	903
554.66583	858
555.18079	864
555.69568	918
556.21063	883
556.72552	906
557.24036	887
557.75525	877
558.27008	905
558.78491	898
559.29974	894
559.81458	868
560.32935	872
560.84412	876
561.35889	875
561.87366	966
562.38837	872
562.90308	913
563.41779	899
563.9325	872
564.44714	919
564.96179	881
565.47644	901
565.99109	920
566.50574	917
567.02032	933
567.53491	916
568.0495	932
568.56403	954
569.07861	927
569.59314	1019
570.1076	879
570.62213	967
571.1366	968
571.65106	969
572.16553	978
572.67999	1020
573.1944	1040
573.7088	1038
574.22321	1018
574.73755	1032
575.25195	1088
575.7663	1031
576.28058	1038
576.79492	1019
577.3092	1083
577.82349	1042
578.33777	1054
578.85205	1054
579.36627	1106
579.88049	1030
580.39471	1076
580.90887	1088
581.42303	1110
581.93719	1110
582.45135	1134
582.96545	1179
583.47955	1141
583.99365	1219
584.50775	1162
585.02179	1245
585.53583	1201
586.04987	1237
586.5639	1161
587.07788	1255
587.59186	1236
588.10583	1222
588.61975	1215
589.13373	1282
589.64758	1276
590.1615	1275
590.67542	1348
591.18927	1269
591.70306	1324
592.21692	1355
592.73071	1316
593.24451	1346
593.7583	1309
594.27209	1380
594.78583	1375
595.29956	1346
595.81323	1395
596.32697	1385
596.84064	1412
597.35425	1456
597.86792	1444
598.38153	1471
598.89514	1366
599.40875	1409
599.9223	1399
600.43585	1450
600.9494	1465
601.46289	1450
601.97638	1509
602.48987	1508
603.00336	1495
603.51678	1391
604.03021	1573
604.54364	1498
605.05701	1520
605.57043	1557
606.08374	1585
606.59711	1532
607.11041	1463
607.62372	1492
608.13702	1587
608.65027	1580
609.16351	1587
609.67676	1472
610.19	1546
610.70319	1512
611.21637	1574
611.72949	1572
612.24268	1692
612.75574	1597
613.26886	1535
613.78192	1582
614.29504	1554
614.80804	1528
615.32111	1625
615.83411	1630
616.34711	1654
616.86005	1678
617.37299	1661
617.88593	1574
618.39886	1641
618.91174	1673
619.42462	1614
619.9375	1651
620.45032	1548
620.96313	1655
621.47595	1630
621.98871	1702
622.50146	1659
623.01422	1614
623.52692	1669
624.03967	1660
624.55231	1757
625.065	1674
625.57764	1724
626.09027	1654
626.60284	1678
627.11542	1677
627.62799	1642
628.14056	1730
628.65308	1637
629.16559	1662
629.6781	1780
630.19055	1741
630.703	1705
631.21539	1658
631.72784	1685
632.24017	1723
632.75256	1731
633.26489	1640
633.77722	1807
634.28955	1806
634.80182	1689
635.31409	1677
635.82635	1759
636.33856	1721
636.85077	1711
637.36292	1725
637.87512	1640
638.38721	1766
638.89935	1767
639.41144	1718
639.92352	1723
640.43561	1648
640.94763	1671
641.45966	1607
641.97162	1758
642.48358	1747
642.99554	1739
643.50751	1704
644.01941	1663
644.53131	1628
645.04315	1682
645.55499	1607
646.06683	1687
646.57861	1689
647.09045	1724
647.60217	1709
648.11395	1644
648.62567	1795
649.13733	1726
649.64905	1688
650.16064	1617
650.6723	1718
651.1839	1702
651.6955	1664
652.20709	1792
652.71863	1727
653.23016	1609
653.74164	1578
654.25311	1659
654.76459	1657
655.276	1691
655.78741	1658
656.29883	1546
656.81018	1585
657.32153	1636
657.83289	1597
658.34418	1556
658.85547	1558
659.3667	1612
659.87793	1606
660.38916	1544
660.90033	1680
661.4115	1594
661.92267	1594
662.43378	1536
662.94489	1595
663.45593	1558
663.96698	1531
664.47803	1553
664.98907	1544
665.50006	1504
666.01099	1571
666.52191	1504
667.03284	1612
667.54376	1504
668.05463	1540
668.56549	1474
669.07629	1501
669.5871	1586
670.0979	1560
670.60864	1609
671.11938	1572
671.63007	1508
672.14075	1463
672.65143	1520
673.16205	1472
673.67267	1501
674.18329	1460
674.69385	1450
675.20435	1446
675.7149	1428
676.2254	1465
676.73584	1478
677.24628	1494
677.75671	1414
678.26715	1467
678.77753	1369
679.28784	1498
679.79822	1408
680.30847	1394
680.81879	1432
681.32904	1356
681.83923	1409
682.34949	1422
682.85968	1345
683.36981	1351
683.87994	1365
684.39008	1333
684.90015	1355
685.41022	1336
685.92023	1395
686.43024	1300
686.94025	1293
687.4502	1271
687.96014	1267
688.47003	1270
688.97992	1266
689.48981	1238
689.99963	1306
690.50946	1193
691.01923	1219
691.52899	1251
692.03876	1208
692.54846	1222
693.05817	1269
693.56781	1245
694.07745	1200
694.58704	1165
695.09662	1228
695.6062	1284
696.11572	1153
696.62524	1155
697.1347	1134
697.64417	1178
698.15363	1139
698.66302	1153
699.17242	1115
699.68176	1120
700.1911	1122
700.70044	1096
701.20972	1167
701.71893	1091
702.22815	1106
702.73737	1057
703.24652	1106
703.75568	1062
704.26483	1048
704.77393	1084
705.28302	1039
705.79205	1064
706.30103	1050
706.81006	1060
707.31903	1021
707.82794	980
708.33685	1022
708.84576	1047
709.35461	1076
709.86346	956
710.37225	932
710.88104	1014
711.38977	1001
711.8985	989
712.40723	981
712.91589	945
713.42456	957
713.93317	944
714.44177	944
714.95032	1025
715.45886	921
715.96735	913
716.47583	966
716.98431	850
717.49274	905
718.00116	907
718.50952	927
719.01788	858
719.52618	883
720.03448	815
720.54272	872
721.05096	924
721.5592	839
722.06738	845
722.57556	859
723.08368	871
723.59174	875
724.09985	840
724.60791	833
725.11591	825
725.6239	845
726.13184	772
726.63977	832
727.14771	810
727.65558	776
728.16339	786
728.67126	810
729.17902	802
729.68683	795
730.19452	801
730.70227	795
731.2099	759
731.71759	784
732.22522	804
732.73279	781
733.24036	711
733.74792	730
734.25543	759
734.76288	750
735.27032	771
735.77777	714
736.28516	695
736.79254	731
737.29987	750
737.80719	696
738.31445	697
738.82172	741
739.32892	700
739.83612	725
740.34326	709
740.8504	701
741.35748	714
741.86456	688
742.37164	705
742.87866	623
743.38562	682
743.89258	654
744.39954	672
744.90643	661
745.41327	621
745.9201	631
746.42694	656
746.93372	630
747.44049	632
747.9472	625
748.45386	602
748.96057	620
749.46716	651
749.97375	605
750.48035	590
750.98688	608
751.49341	612
751.99988	614
752.50635	606
753.01276	609
753.51917	599
754.02551	592
754.53186	551
755.03815	556
755.54443	548
756.05066	593
756.55688	574
757.06305	586
757.56921	565
758.07532	562
758.58142	573
759.08746	583
759.59351	558
760.09949	558
760.60547	556
761.11139	579
761.61725	558
762.12317	540
762.62897	565
763.13483	533
763.64056	522
764.1463	554
764.65204	519
765.15771	557
765.66339	517
766.16901	545
766.67462	586
767.18018	542
767.68567	534
768.19116	532
768.69666	501
769.20209	535
769.70746	493
770.21283	505
770.7182	530
771.22351	485
771.72876	485
772.23401	489
772.73926	502
773.24445	497
773.74957	494
774.2547	440
774.75977	504
775.26483	477
775.76984	451
776.27484	459
776.77979	439
777.28473	488
777.78961	456
778.29449	474
778.79932	483
779.30408	455
779.80884	446
780.3136	477
780.8183	444
781.32294	485
781.82758	445
782.33215	435
782.83673	434
783.34131	443
783.84576	461
784.35028	437
784.85468	438
785.35907	445
785.86346	418
786.3678	460
786.87213	406
787.3764	441
787.88062	432
788.38483	401
788.88898	406
789.39313	428
789.89722	449
790.40131	438
790.90533	398
791.40936	409
791.91333	387
792.4173	427
792.9212	432
793.42505	426
793.92889	415
794.43268	427
794.93646	403
795.44019	404
795.94391	405
796.44757	428
796.95123	404
797.45483	401
797.95837	407
798.46191	364
798.96539	422
799.46887	416
799.97235	399
800.47571	387
800.97906	375
801.48242	415
801.98572	412
802.48895	397
802.99219	382
803.49536	390
803.99854	399
804.50165	388
805.00476	392
805.50781	432
806.01086	411
806.51379	362
807.01678	399
807.51971	382
808.02258	380
808.52539	377
809.02826	408
809.53101	383
810.03375	389
810.53644	380
811.03912	390
811.54175	369
812.04437	400
812.54694	366
813.04944	405
813.55194	359
814.05444	390
814.55682	400
815.05927	375
815.56158	368
816.0639	391
816.56622	377
817.06842	363
817.57068	374
818.07281	333
818.57495	380
819.07709	377
819.57916	371
820.08118	360
820.58319	371
821.08514	389
821.5871	350
822.08899	359
822.59082	377
823.09265	361
823.59442	396
824.09619	384
824.5979	383
825.09955	371
825.6012	404
826.10278	372
826.60437	331
827.1059	372
827.60736	380
828.10883	365
828.61023	351
829.11163	355
829.61298	362
830.11432	357
830.61554	360
831.11682	373
831.61798	362
832.11914	348
832.6203	353
833.1214	351
833.62244	341
834.12347	359
834.62445	366
835.12537	371
835.62628	376
836.12714	357
836.62799	337
837.12878	388
837.62952	349
838.13025	379
838.63092	365
839.13153	370
839.63214	372
840.13275	383
840.63324	349
841.13373	356
841.63422	382
842.13464	372
842.63501	340
843.13538	339
843.63568	381
844.13593	362
844.63617	355
845.13635	352
845.63647	372
846.1366	363
846.63672	358
847.13672	386
847.63672	360
848.13672	363
848.6366	367
849.13647	363
849.63635	357
850.13617	365
850.63593	350
851.13568	368
851.63538	352
852.13501	356
852.63464	331
853.13422	348
853.63373	357
854.13324	360
854.63275	353
855.13214	356
855.63153	355
856.13086	338
856.63019	335
857.12946	350
857.62866	344
858.12787	366
858.62701	342
859.12616	360
859.62524	373
860.12427	353
860.62323	340
861.12219	336
861.62109	373
862.12	340
862.61884	366
863.11761	357
863.61639	334
864.11511	357
864.61377	352
865.11243	337
865.61102	379
866.10962	354
866.60809	347
867.10663	350
867.60504	355
868.10345	377
868.60181	365
869.10016	371
869.59839	361
870.09668	431
870.59485	459
871.09302	560
871.59113	616
872.08923	706
872.58728	793
873.08527	832
873.58325	878
874.08118	878
874.57904	894
875.0769	877
875.57465	921
876.07245	898
876.57013	952
877.06781	919
877.56549	915
878.06305	858
878.56061	884
879.05817	990
879.5556	905
880.05304	893
880.55042	907
881.04779	960
881.5451	1006
882.04236	930
882.53961	966
883.0368	977
883.53394	929
884.03107	977
884.52808	985
885.02515	958
