Date and Time:                Thu Oct 30 08:30:11.261 2025
Software Version:             4.30.30000.0
Unstabilized Temperature (C): -90.28
Model:                        DU971P_UVB
Data Type:                    Counts
Acquisition Mode:             Single Scan
Trigger Mode:                 Internal
Exposure Time (secs):         30
Readout Mode:                 Full Vertical Binning
Horizontal binning:           2
Extended Dynamic Range:       off
Horizontally flipped:         false
Vertical Shift Speed (usecs): 9.68
Pixel Readout Rate (MHz):     3
Baseline Clamp:               ON
Clock Amplitude:              Normal
Output Amplifier:             Conventional
Serial Number:                20367
Pre-Amplifier Gain:           4x
Spurious Noise Filter Mode:   No Filter
Photon counted:               false
Data Averaging Filter Mode:   No Filter
SR193i:
Serial Number:                SR-2646
Wavelength (nm):              690
Grating Groove Density (l/mm):300
Grating Blaze:                500nm
Input Side Slit Width (um):   1000



478.32681	266
478.84332	305
479.35983	314
479.87631	323
480.39282	303
480.9093	327
481.42575	318
481.94223	303
482.45868	318
482.97513	320
483.49158	307
484.00803	311
484.52444	324
485.04086	336
485.55728	338
486.07367	318
486.59006	301
487.10645	322
487.62283	328
488.13919	307
488.65555	320
489.17191	318
489.68826	319
490.20459	307
490.72092	310
491.23724	312
491.75354	311
492.26984	325
492.78613	311
493.30243	310
493.8187	310
494.33496	308
494.85123	297
495.36746	315
495.8837	317
496.39993	305
496.91617	314
497.43237	306
497.94858	302
498.46478	299
498.98096	297
499.49713	324
500.01331	310
500.52945	339
501.04562	312
501.56174	315
502.07788	324
502.59399	294
503.11011	309
503.62622	336
504.1423	315
504.65839	304
505.17447	307
505.69052	332
506.20657	313
506.72263	309
507.23865	317
507.75467	326
508.27069	313
508.78668	289
509.30267	320
509.81866	296
510.33463	312
510.85059	309
511.36655	334
511.88248	314
512.39844	322
512.91437	322
513.43024	324
513.94617	324
514.46204	304
514.97791	321
515.49377	298
516.00964	287
516.52551	301
517.04132	334
517.55719	331
518.073	309
518.58881	313
519.10461	305
519.62036	323
520.13617	304
520.65192	318
521.16766	318
521.68341	324
522.1991	319
522.71484	329
523.23053	328
523.74622	319
524.2619	316
524.77759	300
525.29327	304
525.8089	299
526.32452	307
526.84015	329
527.35577	317
527.8714	308
528.38696	320
528.90259	302
529.41815	319
529.93372	310
530.44922	310
530.96478	300
531.48029	304
531.99579	322
532.51129	305
533.02679	299
533.5423	295
534.05774	319
534.57318	336
535.08862	314
535.60406	310
536.11945	319
536.63489	328
537.15027	321
537.66565	341
538.18097	294
538.69635	314
539.21167	320
539.72699	305
540.24231	301
540.75763	307
541.27289	314
541.78821	321
542.30347	322
542.81873	330
543.33392	308
543.84918	299
544.36438	328
544.87958	324
545.39478	324
545.90991	343
546.42511	308
546.94025	299
547.45538	335
547.97052	305
548.4856	318
549.00073	327
549.51581	324
550.03088	309
550.5459	327
551.06097	330
551.57599	297
552.091	330
552.60602	307
553.12097	326
553.63593	300
554.15094	315
554.66583	319
555.18079	304
555.69568	315
556.21063	339
556.72552	295
557.24036	335
557.75525	333
558.27008	328
558.78491	318
559.29974	311
559.81458	296
560.32935	313
560.84412	313
561.35889	309
561.87366	311
562.38837	309
562.90308	312
563.41779	292
563.9325	317
564.44714	301
564.96179	310
565.47644	332
565.99109	316
566.50574	296
567.02032	307
567.53491	314
568.0495	305
568.56403	316
569.07861	332
569.59314	287
570.1076	317
570.62213	311
571.1366	326
571.65106	285
572.16553	301
572.67999	306
573.1944	308
573.7088	312
574.22321	311
574.73755	329
575.25195	318
575.7663	321
576.28058	298
576.79492	294
577.3092	324
577.82349	296
578.33777	302
578.85205	312
579.36627	299
579.88049	331
580.39471	308
580.90887	312
581.42303	288
581.93719	313
582.45135	338
582.96545	298
583.47955	319
583.99365	303
584.50775	295
585.02179	316
585.53583	312
586.04987	327
586.5639	307
587.07788	317
587.59186	329
588.10583	310
588.61975	323
589.13373	320
589.64758	273
590.1615	300
590.67542	325
591.18927	280
591.70306	314
592.21692	329
592.73071	311
593.24451	308
593.7583	296
594.27209	316
594.78583	307
595.29956	311
595.81323	298
596.32697	318
596.84064	332
597.35425	294
597.86792	316
598.38153	326
598.89514	318
599.40875	321
599.9223	315
600.43585	324
600.9494	338
601.46289	299
601.97638	304
602.48987	318
603.00336	318
603.51678	327
604.03021	297
604.54364	324
605.05701	316
605.57043	317
606.08374	337
606.59711	309
607.11041	299
607.62372	309
608.13702	304
608.65027	325
609.16351	300
609.67676	317
610.19	296
610.70319	320
611.21637	308
611.72949	312
612.24268	315
612.75574	310
613.26886	300
613.78192	293
614.29504	309
614.80804	308
615.32111	311
615.83411	307
616.34711	321
616.86005	334
617.37299	318
617.88593	301
618.39886	303
618.91174	288
619.42462	315
619.9375	304
620.45032	303
620.96313	312
621.47595	333
621.98871	300
622.50146	317
623.01422	320
623.52692	296
624.03967	294
624.55231	298
625.065	318
625.57764	320
626.09027	305
626.60284	322
627.11542	302
627.62799	313
628.14056	296
628.65308	312
629.16559	307
629.6781	306
630.19055	317
630.703	323
631.21539	324
631.72784	305
632.24017	327
632.75256	318
633.26489	314
633.77722	311
634.28955	296
634.80182	315
635.31409	308
635.82635	324
636.33856	319
636.85077	298
637.36292	319
637.87512	291
638.38721	299
638.89935	317
639.41144	317
639.92352	317
640.43561	320
640.94763	305
641.45966	315
641.97162	295
642.48358	313
642.99554	328
643.50751	300
644.01941	315
644.53131	310
645.04315	322
645.55499	337
646.06683	317
646.57861	294
647.09045	327
647.60217	293
648.11395	315
648.62567	301
649.13733	318
649.64905	305
650.16064	323
650.6723	328
651.1839	294
651.6955	300
652.20709	342
652.71863	313
653.23016	313
653.74164	304
654.25311	303
654.76459	327
655.276	309
655.78741	321
656.29883	319
656.81018	296
657.32153	303
657.83289	300
658.34418	324
658.85547	304
659.3667	317
659.87793	304
660.38916	310
660.90033	335
661.4115	337
661.92267	319
662.43378	316
662.94489	298
663.45593	315
663.96698	291
664.47803	304
664.98907	312
665.50006	317
666.01099	309
666.52191	327
667.03284	316
667.54376	346
668.05463	313
668.56549	322
669.07629	331
669.5871	309
670.0979	313
670.60864	332
671.11938	303
671.63007	308
672.14075	314
672.65143	319
673.16205	307
673.67267	323
674.18329	299
674.69385	318
675.20435	297
675.7149	324
676.2254	321
676.73584	320
677.24628	314
677.75671	307
678.26715	318
678.77753	310
679.28784	301
679.79822	299
680.30847	315
680.81879	325
681.32904	316
681.83923	332
682.34949	337
682.85968	329
683.36981	306
683.87994	307
684.39008	304
684.90015	313
685.41022	309
685.92023	324
686.43024	320
686.94025	318
687.4502	313
687.96014	334
688.47003	311
688.97992	326
689.48981	306
689.99963	323
690.50946	295
691.01923	306
691.52899	285
692.03876	324
692.54846	328
693.05817	302
693.56781	332
694.07745	319
694.58704	308
695.09662	314
695.6062	316
696.11572	308
696.62524	329
697.1347	303
697.64417	296
698.15363	315
698.66302	314
699.17242	334
699.68176	310
700.1911	301
700.70044	300
701.20972	330
701.71893	319
702.22815	312
702.73737	317
703.24652	317
703.75568	313
704.26483	305
704.77393	314
705.28302	305
705.79205	320
706.30103	302
706.81006	309
707.31903	318
707.82794	316
708.33685	304
708.84576	315
709.35461	300
709.86346	327
710.37225	320
710.88104	317
711.38977	326
711.8985	325
712.40723	317
712.91589	303
713.42456	299
713.93317	302
714.44177	305
714.95032	299
715.45886	323
715.96735	308
716.47583	318
716.98431	297
717.49274	312
718.00116	312
718.50952	320
719.01788	314
719.52618	313
720.03448	299
720.54272	295
721.05096	323
721.5592	355
722.06738	307
722.57556	301
723.08368	319
723.59174	320
724.09985	315
724.60791	295
725.11591	291
725.6239	320
726.13184	340
726.63977	310
727.14771	314
727.65558	302
728.16339	305
728.67126	319
729.17902	314
729.68683	305
730.19452	329
730.70227	307
731.2099	311
731.71759	296
732.22522	305
732.73279	330
733.24036	315
733.74792	283
734.25543	313
734.76288	309
735.27032	303
735.77777	311
736.28516	288
736.79254	313
737.29987	304
737.80719	305
738.31445	320
738.82172	315
739.32892	312
739.83612	313
740.34326	334
740.8504	321
741.35748	318
741.86456	320
742.37164	328
742.87866	335
743.38562	332
743.89258	302
744.39954	316
744.90643	328
745.41327	304
745.9201	329
746.42694	306
746.93372	307
747.44049	330
747.9472	310
748.45386	304
748.96057	308
749.46716	329
749.97375	302
750.48035	314
750.98688	323
751.49341	329
751.99988	322
752.50635	309
753.01276	330
753.51917	317
754.02551	304
754.53186	311
755.03815	323
755.54443	295
756.05066	330
756.55688	295
757.06305	316
757.56921	316
758.07532	314
758.58142	321
759.08746	332
759.59351	306
760.09949	330
760.60547	294
761.11139	309
761.61725	333
762.12317	317
762.62897	323
763.13483	308
763.64056	320
764.1463	316
764.65204	299
765.15771	331
765.66339	325
766.16901	290
766.67462	301
767.18018	304
767.68567	331
768.19116	314
768.69666	309
769.20209	331
769.70746	318
770.21283	331
770.7182	316
771.22351	306
771.72876	307
772.23401	313
772.73926	300
773.24445	299
773.74957	322
774.2547	323
774.75977	305
775.26483	297
775.76984	297
776.27484	290
776.77979	315
777.28473	309
777.78961	307
778.29449	312
778.79932	323
779.30408	317
779.80884	326
780.3136	324
780.8183	297
781.32294	306
781.82758	306
782.33215	330
782.83673	309
783.34131	299
783.84576	325
784.35028	294
784.85468	327
785.35907	319
785.86346	325
786.3678	321
786.87213	320
787.3764	316
787.88062	308
788.38483	315
788.88898	310
789.39313	336
789.89722	316
790.40131	315
790.90533	301
791.40936	299
791.91333	310
792.4173	305
792.9212	316
793.42505	320
793.92889	322
794.43268	304
794.93646	312
795.44019	308
795.94391	322
796.44757	300
796.95123	308
797.45483	306
797.95837	315
798.46191	326
798.96539	305
799.46887	323
799.97235	297
800.47571	319
800.97906	319
801.48242	324
801.98572	311
802.48895	296
802.99219	315
803.49536	348
803.99854	337
804.50165	318
805.00476	325
805.50781	317
806.01086	312
806.51379	306
807.01678	304
807.51971	319
808.02258	304
808.52539	294
809.02826	299
809.53101	298
810.03375	342
810.53644	317
811.03912	330
811.54175	317
812.04437	316
812.54694	310
813.04944	317
813.55194	300
814.05444	308
814.55682	331
815.05927	302
815.56158	331
816.0639	330
816.56622	316
817.06842	315
817.57068	312
818.07281	326
818.57495	315
819.07709	325
819.57916	315
820.08118	307
820.58319	320
821.08514	299
821.5871	311
822.08899	315
822.59082	331
823.09265	313
823.59442	312
824.09619	330
824.5979	325
825.09955	319
825.6012	318
826.10278	316
826.60437	313
827.1059	330
827.60736	307
828.10883	333
828.61023	310
829.11163	322
829.61298	336
830.11432	316
830.61554	313
831.11682	293
831.61798	309
832.11914	316
832.6203	314
833.1214	322
833.62244	328
834.12347	304
834.62445	300
835.12537	306
835.62628	310
836.12714	330
836.62799	299
837.12878	315
837.62952	336
838.13025	314
838.63092	317
839.13153	331
839.63214	314
840.13275	311
840.63324	312
841.13373	320
841.63422	312
842.13464	299
842.63501	303
843.13538	318
843.63568	326
844.13593	329
844.63617	340
845.13635	316
845.63647	320
846.1366	319
846.63672	342
847.13672	302
847.63672	312
848.13672	331
848.6366	317
849.13647	311
849.63635	314
850.13617	303
850.63593	325
851.13568	315
851.63538	321
852.13501	320
852.63464	291
853.13422	322
853.63373	304
854.13324	311
854.63275	315
855.13214	338
855.63153	305
856.13086	310
856.63019	321
857.12946	323
857.62866	312
858.12787	321
858.62701	314
859.12616	346
859.62524	300
860.12427	305
860.62323	327
861.12219	308
861.62109	319
862.12	324
862.61884	329
863.11761	316
863.61639	315
864.11511	305
864.61377	331
865.11243	315
865.61102	307
866.10962	309
866.60809	284
867.10663	316
867.60504	334
868.10345	303
868.60181	319
869.10016	329
869.59839	323
870.09668	314
870.59485	318
871.09302	308
871.59113	328
872.08923	319
872.58728	316
873.08527	318
873.58325	307
874.08118	322
874.57904	319
875.0769	312
875.57465	309
876.07245	312
876.57013	316
877.06781	302
877.56549	304
878.06305	310
878.56061	354
879.05817	327
879.5556	311
880.05304	316
880.55042	304
881.04779	317
881.5451	321
882.04236	316
882.53961	304
883.0368	323
883.53394	312
884.03107	342
884.52808	304
885.02515	309
